% Freja (4)
%  1    time 0.000 sec
%  2  3 Motor voltage [V] left, right: 3.00 3.00
%  4  5 Motor current left, right [A]: 0.147 0.128
%  6  7 Wheel velocity [m/s] left, right: -0.0000 0.0000
0.000 3.00 3.00 -0.004 0.015 -0.0000 0.0000 
0.001 3.00 3.00 0.115 0.013 -0.0000 0.0000 
0.002 3.00 3.00 0.504 0.237 -0.0000 0.0000 
0.003 3.00 3.00 0.728 0.482 -0.0000 0.0000 
0.004 3.00 3.00 0.779 0.642 -0.0000 0.0000 
0.005 3.00 3.00 0.764 0.731 -0.0000 0.0000 
0.006 3.00 3.00 0.823 0.787 -0.0000 0.0000 
0.007 3.00 3.00 0.833 0.806 0.0000 0.0000 
0.008 3.00 3.00 0.777 0.785 0.0000 0.0000 
0.009 3.00 3.00 0.835 0.773 0.0000 0.0000 
0.010 3.00 3.00 0.831 0.771 0.1305 0.0000 
0.011 3.00 3.00 0.814 0.737 0.1305 0.1976 
0.012 3.00 3.00 0.741 0.711 0.1831 0.1976 
0.013 3.00 3.00 0.759 0.724 0.1831 0.2302 
0.014 3.00 3.00 0.643 0.712 0.2417 0.2850 
0.015 3.00 3.00 0.644 0.611 0.2417 0.2850 
0.016 3.00 3.00 0.755 0.549 0.2623 0.2671 
0.017 3.00 3.00 0.800 0.521 0.2811 0.2934 
0.018 3.00 3.00 0.707 0.503 0.3178 0.2934 
0.019 3.00 3.00 0.687 0.499 0.3178 0.2922 
0.020 3.00 3.00 0.791 0.487 0.3505 0.3655 
0.021 3.00 3.00 0.585 0.492 0.3596 0.3539 
0.022 3.00 3.00 0.513 0.498 0.3428 0.3618 
0.023 3.00 3.00 0.578 0.478 0.3882 0.3639 
0.024 3.00 3.00 0.452 0.419 0.4343 0.4129 
0.025 3.00 3.00 0.499 0.416 0.4205 0.4075 
0.026 3.00 3.00 0.532 0.427 0.4133 0.4493 
0.027 3.00 3.00 0.622 0.430 0.4484 0.4168 
0.028 3.00 3.00 0.485 0.424 0.4762 0.4719 
0.029 3.00 3.00 0.358 0.455 0.4734 0.4060 
0.030 3.00 3.00 0.392 0.484 0.4862 0.4673 
0.031 3.00 3.00 0.420 0.467 0.5566 0.4875 
0.032 3.00 3.00 0.389 0.425 0.5223 0.4736 
0.033 3.00 3.00 0.402 0.400 0.5189 0.5307 
0.034 3.00 3.00 0.509 0.375 0.4662 0.5088 
0.035 3.00 3.00 0.467 0.372 0.5359 0.4775 
0.036 3.00 3.00 0.516 0.373 0.5466 0.5470 
0.037 3.00 3.00 0.488 0.357 0.5393 0.5559 
0.038 3.00 3.00 0.431 0.309 0.6588 0.5235 
0.039 3.00 3.00 0.345 0.313 0.5830 0.5862 
0.040 3.00 3.00 0.343 0.326 0.5991 0.5520 
0.041 3.00 3.00 0.358 0.343 0.6019 0.5254 
0.042 3.00 3.00 0.305 0.357 0.6177 0.6245 
0.043 3.00 3.00 0.242 0.375 0.6207 0.5889 
0.044 3.00 3.00 0.424 0.320 0.6215 0.5436 
0.045 3.00 3.00 0.362 0.295 0.6587 0.6185 
0.046 3.00 3.00 0.455 0.292 0.5925 0.6186 
0.047 3.00 3.00 0.297 0.280 0.6353 0.6430 
0.048 3.00 3.00 0.244 0.272 0.6540 0.6135 
0.049 3.00 3.00 0.319 0.258 0.6180 0.5849 
0.050 3.00 3.00 0.446 0.273 0.6974 0.6834 
0.051 3.00 3.00 0.441 0.276 0.6683 0.6517 
0.052 3.00 3.00 0.354 0.284 0.6744 0.5801 
0.053 3.00 3.00 0.339 0.286 0.6904 0.6489 
0.054 3.00 3.00 0.308 0.267 0.6880 0.6351 
0.055 3.00 3.00 0.254 0.223 0.7017 0.6563 
0.056 3.00 3.00 0.251 0.221 0.6392 0.7181 
0.057 3.00 3.00 0.319 0.209 0.7569 0.6627 
0.058 3.00 3.00 0.215 0.222 0.6631 0.6386 
0.059 3.00 3.00 0.216 0.236 0.7009 0.6883 
0.060 3.00 3.00 0.266 0.229 0.7150 0.6777 
0.061 3.00 3.00 0.375 0.233 0.7171 0.7116 
0.062 3.00 3.00 0.377 0.225 0.7303 0.7106 
0.063 3.00 3.00 0.362 0.250 0.7268 0.7098 
0.064 3.00 3.00 0.448 0.239 0.6455 0.7678 
0.065 3.00 3.00 0.362 0.220 0.7226 0.7220 
0.066 3.00 3.00 0.291 0.233 0.7225 0.6603 
0.067 3.00 3.00 0.155 0.221 0.7987 0.7526 
0.068 3.00 3.00 0.178 0.183 0.7175 0.6964 
0.069 3.00 3.00 0.197 0.192 0.7543 0.7198 
0.070 3.00 3.00 0.310 0.217 0.7713 0.7390 
0.071 3.00 3.00 0.329 0.211 0.7689 0.7941 
0.072 3.00 3.00 0.341 0.221 0.7676 0.7330 
0.073 3.00 3.00 0.292 0.210 0.7810 0.7785 
0.074 3.00 3.00 0.340 0.205 0.7740 0.7591 
0.075 3.00 3.00 0.238 0.180 0.7878 0.7927 
0.076 3.00 3.00 0.225 0.175 0.7809 0.7529 
0.077 3.00 3.00 0.312 0.191 0.7950 0.7100 
0.078 3.00 3.00 0.276 0.194 0.7785 0.7573 
0.079 3.00 3.00 0.264 0.180 0.7862 0.6918 
0.080 3.00 3.00 0.154 0.180 0.7794 0.7668 
0.081 3.00 3.00 0.212 0.195 0.7900 0.7444 
0.082 3.00 3.00 0.163 0.175 0.7191 0.7139 
0.083 3.00 3.00 0.284 0.139 0.8099 0.7732 
0.084 3.00 3.00 0.139 0.132 0.7509 0.7367 
0.085 3.00 3.00 0.133 0.152 0.8122 0.7887 
0.086 3.00 3.00 0.132 0.164 0.7884 0.7728 
0.087 3.00 3.00 0.101 0.155 0.8495 0.7849 
0.088 3.00 3.00 0.103 0.153 0.8258 0.7989 
0.089 3.00 3.00 0.134 0.178 0.7137 0.7987 
0.090 3.00 3.00 0.144 0.200 0.7944 0.8136 
0.091 3.00 3.00 0.195 0.177 0.7937 0.7781 
0.092 3.00 3.00 0.070 0.152 0.8625 0.7699 
0.093 3.00 3.00 0.165 0.159 0.7800 0.8049 
0.094 3.00 3.00 0.255 0.161 0.8104 0.8055 
0.095 3.00 3.00 0.213 0.145 0.8250 0.8030 
0.096 3.00 3.00 0.180 0.148 0.8052 0.8012 
0.097 3.00 3.00 0.221 0.164 0.8400 0.8008 
0.098 3.00 3.00 0.138 0.151 0.8024 0.7923 
0.099 3.00 3.00 0.071 0.150 0.8326 0.8160 
0.100 3.00 3.00 0.022 0.115 0.8099 0.8154 
0.101 3.00 3.00 0.159 0.128 0.8450 0.8228 
0.102 3.00 3.00 0.287 0.141 0.8401 0.8275 
0.103 3.00 3.00 0.226 0.137 0.8621 0.8296 
0.104 3.00 3.00 0.189 0.143 0.8198 0.7923 
0.105 3.00 3.00 0.273 0.155 0.8477 0.8556 
0.106 3.00 3.00 0.144 0.146 0.8031 0.8080 
0.107 3.00 3.00 0.174 0.120 0.8541 0.8213 
0.108 3.00 3.00 0.054 0.104 0.8180 0.8191 
0.109 3.00 3.00 0.091 0.106 0.8524 0.8192 
0.110 3.00 3.00 0.192 0.111 0.8999 0.8406 
0.111 3.00 3.00 0.156 0.121 0.8719 0.7472 
0.112 3.00 3.00 0.105 0.136 0.7561 0.7936 
0.113 3.00 3.00 0.114 0.148 0.8187 0.8144 
0.114 3.00 3.00 0.072 0.156 0.8333 0.8520 
0.115 3.00 3.00 0.018 0.130 0.9068 0.7690 
0.116 3.00 3.00 0.072 0.114 0.8478 0.8423 
0.117 3.00 3.00 0.075 0.132 0.8548 0.8053 
0.118 3.00 3.00 0.171 0.135 0.8624 0.8425 
0.119 3.00 3.00 0.159 0.116 0.8456 0.7724 
0.120 3.00 3.00 0.108 0.116 0.8675 0.8395 
0.121 3.00 3.00 0.124 0.136 0.8244 0.7715 
0.122 3.00 3.00 0.086 0.143 0.8551 0.8457 
0.123 3.00 3.00 0.132 0.108 0.8304 0.8493 
0.124 3.00 3.00 0.109 0.112 0.8668 0.8568 
0.125 3.00 3.00 0.164 0.137 0.8601 0.8606 
0.126 3.00 3.00 0.158 0.119 0.8811 0.8616 
0.127 3.00 3.00 0.184 0.088 0.8535 0.8222 
0.128 3.00 3.00 0.124 0.119 0.8721 0.8868 
0.129 3.00 3.00 0.148 0.129 0.8724 0.8531 
0.130 3.00 3.00 0.256 0.091 0.8106 0.8477 
0.131 3.00 3.00 0.166 0.076 0.8664 0.8465 
0.132 3.00 3.00 0.176 0.092 0.8580 0.8557 
0.133 3.00 3.00 0.102 0.115 0.9155 0.8706 
0.134 3.00 3.00 0.059 0.099 0.8860 0.7702 
0.135 3.00 3.00 0.141 0.103 0.7637 0.8169 
0.136 3.00 3.00 0.117 0.141 0.8460 0.8383 
0.137 3.00 3.00 0.049 0.137 0.8581 0.8759 
0.138 3.00 3.00 0.040 0.109 0.8945 0.7859 
0.139 3.00 3.00 0.163 0.106 0.8655 0.8640 
0.140 3.00 3.00 0.094 0.115 0.8674 0.8852 
0.141 3.00 3.00 0.056 0.099 0.8758 0.8743 
0.142 3.00 3.00 0.164 0.096 0.8664 0.8626 
0.143 3.00 3.00 0.205 0.110 0.8488 0.8615 
0.144 3.00 3.00 0.263 0.125 0.8718 0.8497 
0.145 3.00 3.00 0.263 0.111 0.8518 0.8737 
0.146 3.00 3.00 0.219 0.092 0.8917 0.8840 
0.147 3.00 3.00 0.193 0.115 0.8801 0.8441 
0.148 3.00 3.00 0.092 0.119 0.9154 0.8782 
0.149 3.00 3.00 0.037 0.100 0.8662 0.7814 
0.150 3.00 3.00 0.056 0.103 0.8857 0.8498 
0.151 3.00 3.00 0.068 0.126 0.8341 0.8685 
0.152 3.00 3.00 0.216 0.115 0.8859 0.7983 
0.153 3.00 3.00 0.020 0.082 0.8606 0.8616 
0.154 3.00 3.00 0.209 0.080 0.8859 0.8690 
0.155 3.00 3.00 0.132 0.095 0.8736 0.9124 
0.156 3.00 3.00 0.061 0.081 0.8965 0.9068 
0.157 3.00 3.00 0.192 0.084 0.7719 0.8289 
0.158 3.00 3.00 0.262 0.110 0.8391 0.8496 
0.159 3.00 3.00 0.132 0.132 0.8539 0.8955 
0.160 3.00 3.00 0.123 0.110 0.9288 0.8720 
0.161 3.00 3.00 0.159 0.097 0.8680 0.8760 
0.162 3.00 3.00 0.181 0.114 0.8751 0.8598 
0.163 3.00 3.00 0.067 0.113 0.8829 0.8837 
0.164 3.00 3.00 0.151 0.078 0.8737 0.8062 
0.165 3.00 3.00 0.158 0.099 0.8942 0.8751 
0.166 3.00 3.00 0.194 0.113 0.8672 0.8057 
0.167 3.00 3.00 0.033 0.090 0.8853 0.8865 
0.168 3.00 3.00 0.120 0.073 0.8978 0.8960 
0.169 3.00 3.00 0.052 0.086 0.8853 0.8936 
0.170 3.00 3.00 0.151 0.122 0.9219 0.9104 
0.171 3.00 3.00 0.162 0.105 0.8723 0.8990 
0.172 3.00 3.00 0.069 0.071 0.8933 0.8672 
0.173 3.00 3.00 0.175 0.110 0.8042 0.8859 
0.174 3.00 3.00 0.116 0.106 0.8915 0.8486 
0.175 3.00 3.00 0.067 0.071 0.8683 0.8880 
0.176 3.00 3.00 0.124 0.059 0.8921 0.8577 
0.177 3.00 3.00 0.147 0.086 0.8813 0.9305 
0.178 3.00 3.00 0.125 0.090 0.9144 0.9233 
0.179 3.00 3.00 0.155 0.070 0.8686 0.8434 
0.180 3.00 3.00 0.097 0.105 0.8465 0.8657 
0.181 3.00 3.00 0.093 0.135 0.8634 0.9098 
0.182 3.00 3.00 0.140 0.099 0.9385 0.8850 
0.183 3.00 3.00 0.140 0.080 0.8769 0.8991 
0.184 3.00 3.00 0.199 0.091 0.8819 0.8757 
0.185 3.00 3.00 0.125 0.088 0.8930 0.8973 
0.186 3.00 3.00 0.041 0.077 0.8825 0.8550 
0.187 3.00 3.00 0.060 0.095 0.9027 0.8977 
0.188 3.00 3.00 0.015 0.124 0.8754 0.8667 
0.189 3.00 3.00 0.115 0.098 0.8907 0.8900 
0.190 3.00 3.00 0.016 0.080 0.9068 0.8998 
0.191 3.00 3.00 0.088 0.097 0.8939 0.8970 
0.192 3.00 3.00 0.082 0.126 0.9299 0.9142 
0.193 3.00 3.00 0.033 0.106 0.8801 0.8021 
0.194 3.00 3.00 0.066 0.097 0.9033 0.8699 
0.195 3.00 3.00 0.135 0.112 0.8107 0.8880 
0.196 3.00 3.00 0.075 0.096 0.8993 0.8509 
0.197 3.00 3.00 -0.032 0.061 0.8751 0.8916 
0.198 3.00 3.00 0.015 0.083 0.8991 0.8885 
0.199 3.00 3.00 0.042 0.086 0.8839 0.9334 
0.200 3.00 3.00 -0.028 0.088 0.9133 0.9252 
0.201 3.00 3.00 0.034 0.078 0.7858 0.8460 
0.202 3.00 3.00 0.154 0.116 0.8535 0.8653 
0.203 3.00 3.00 0.044 0.122 0.8689 0.9058 
0.204 3.00 3.00 0.054 0.099 0.9431 0.8493 
0.205 3.00 3.00 0.030 0.093 0.8814 0.9018 
0.206 3.00 3.00 0.188 0.110 0.8882 0.8770 
0.207 3.00 3.00 0.026 0.087 0.8974 0.8989 
0.208 3.00 3.00 -0.011 0.073 0.8863 0.9110 
0.209 3.00 3.00 0.076 0.092 0.9064 0.8918 
0.210 3.00 3.00 -0.013 0.112 0.8761 0.8942 
0.211 3.00 3.00 0.027 0.088 0.8691 0.9035 
0.212 3.00 3.00 0.095 0.069 0.9082 0.9090 
0.213 3.00 3.00 0.263 0.106 0.8961 0.8709 
0.214 3.00 3.00 0.198 0.103 0.9326 0.9071 
0.215 3.00 3.00 0.094 0.082 0.8828 0.8105 
0.216 3.00 3.00 0.245 0.080 0.9016 0.8768 
0.217 3.00 3.00 0.246 0.096 0.8711 0.8973 
0.218 3.00 3.00 0.064 0.078 0.9073 0.9065 
0.219 3.00 3.00 0.041 0.050 0.8784 0.8899 
0.220 3.00 3.00 0.056 0.086 0.9012 0.8961 
0.221 3.00 3.00 0.121 0.088 0.9460 0.9375 
0.222 3.00 3.00 0.237 0.081 0.9160 0.8038 
0.223 3.00 3.00 0.119 0.084 0.7874 0.8515 
0.224 3.00 3.00 0.157 0.099 0.8550 0.8721 
0.225 3.00 3.00 0.088 0.111 0.8711 0.9114 
0.226 3.00 3.00 0.009 0.089 0.9191 0.8553 
0.227 3.00 3.00 0.150 0.099 0.8896 0.9111 
0.228 3.00 3.00 0.048 0.114 0.8902 0.9210 
0.229 3.00 3.00 0.157 0.084 0.8964 0.9067 
0.230 3.00 3.00 0.056 0.070 0.8885 0.9156 
0.231 3.00 3.00 0.067 0.095 0.8679 0.8956 
0.232 3.00 3.00 0.112 0.111 0.8944 0.8907 
0.233 3.00 3.00 0.101 0.069 0.8667 0.8754 
0.234 3.00 3.00 0.218 0.073 0.9053 0.9018 
0.235 3.00 3.00 0.059 0.101 0.8913 0.8719 
0.236 3.00 3.00 0.022 0.111 0.9095 0.9092 
0.237 3.00 3.00 0.105 0.074 0.8789 0.8635 
0.238 3.00 3.00 0.075 0.088 0.8951 0.9294 
0.239 3.00 3.00 0.166 0.114 0.8427 0.8962 
0.240 3.00 3.00 0.208 0.082 0.8923 0.9064 
0.241 3.00 3.00 0.079 0.071 0.8720 0.8895 
0.242 3.00 3.00 0.052 0.085 0.8820 0.8990 
0.243 3.00 3.00 0.226 0.094 0.9405 0.9102 
0.244 3.00 3.00 0.022 0.069 0.9094 0.8028 
0.245 3.00 3.00 0.059 0.096 0.7854 0.8521 
0.246 3.00 3.00 0.266 0.135 0.8505 0.9176 
0.247 3.00 3.00 0.046 0.116 0.8801 0.8947 
0.248 3.00 3.00 0.057 0.096 0.9144 0.8906 
0.249 3.00 3.00 0.047 0.092 0.8860 0.9113 
0.250 3.00 3.00 0.188 0.096 0.8860 0.9214 
0.251 3.00 3.00 0.235 0.064 0.8938 0.8638 
0.252 3.00 3.00 0.162 0.082 0.9122 0.9065 
0.253 3.00 3.00 0.030 0.109 0.8654 0.8585 
0.254 3.00 3.00 0.112 0.096 0.8912 0.9079 
0.255 3.00 3.00 0.046 0.078 0.8664 0.9149 
0.256 3.00 3.00 0.059 0.086 0.9078 0.9102 
0.257 3.00 3.00 0.092 0.117 0.8930 0.9286 
0.258 3.00 3.00 0.196 0.103 0.9151 0.9147 
0.259 3.00 3.00 0.093 0.071 0.8838 0.8936 
0.260 3.00 3.00 0.061 0.097 0.9009 0.9039 
0.261 3.00 3.00 0.239 0.083 0.8704 0.8627 
0.262 3.00 3.00 0.079 0.067 0.9079 0.9026 
0.263 3.00 3.00 0.028 0.058 0.9047 0.8705 
0.264 3.00 3.00 0.163 0.084 0.8891 0.9442 
0.265 3.00 3.00 0.275 0.073 0.9461 0.9369 
0.266 3.00 3.00 0.036 0.052 0.9130 0.8559 
0.267 3.00 3.00 0.256 0.071 0.7876 0.8779 
0.268 3.00 3.00 0.201 0.113 0.8712 0.9198 
0.269 3.00 3.00 0.053 0.103 0.8859 0.8582 
0.270 3.00 3.00 0.080 0.084 0.9193 0.9069 
0.271 3.00 3.00 0.032 0.098 0.8902 0.8787 
0.272 3.00 3.00 0.175 0.102 0.8988 0.8977 
0.273 3.00 3.00 0.094 0.062 0.8847 0.8589 
0.274 3.00 3.00 0.061 0.091 0.9172 0.8913 
0.275 3.00 3.00 0.053 0.106 0.8699 0.8941 
0.276 3.00 3.00 0.030 0.092 0.8952 0.9039 
0.277 3.00 3.00 0.134 0.073 0.8708 0.9093 
0.278 3.00 3.00 0.136 0.081 0.9080 0.9056 
0.279 3.00 3.00 0.194 0.117 0.8976 0.9070 
0.280 3.00 3.00 0.110 0.084 0.9184 0.8089 
0.281 3.00 3.00 0.189 0.078 0.8877 0.8779 
0.282 3.00 3.00 0.109 0.090 0.8698 0.8963 
0.283 3.00 3.00 0.064 0.080 0.9197 0.9067 
0.284 3.00 3.00 0.016 0.057 0.8733 0.8917 
0.285 3.00 3.00 0.060 0.079 0.9073 0.8970 
0.286 3.00 3.00 0.050 0.098 0.8914 0.9424 
0.287 3.00 3.00 0.067 0.088 0.9242 0.9322 
0.288 3.00 3.00 -0.018 0.064 0.8988 0.8557 
0.289 3.00 3.00 0.026 0.112 0.8347 0.8780 
0.290 3.00 3.00 0.045 0.113 0.8674 0.9184 
0.291 3.00 3.00 0.105 0.090 0.8758 0.8612 
0.292 3.00 3.00 0.011 0.086 0.8802 0.9159 
0.293 3.00 3.00 0.064 0.084 0.8867 0.9303 
0.294 3.00 3.00 0.173 0.076 0.8951 0.9153 
0.295 3.00 3.00 0.061 0.066 0.8786 0.9242 
0.296 3.00 3.00 0.083 0.092 0.9133 0.9042 
0.297 3.00 3.00 0.083 0.098 0.8646 0.9159 
0.298 3.00 3.00 0.099 0.081 0.8928 0.8878 
0.299 3.00 3.00 -0.027 0.061 0.8740 0.9135 
0.300 3.00 3.00 0.040 0.104 0.9003 0.8823 
0.301 3.00 3.00 0.086 0.103 0.8911 0.9184 
0.302 3.00 3.00 -0.009 0.071 0.9122 0.9026 
0.303 3.00 3.00 0.071 0.091 0.9029 0.9453 
0.304 3.00 3.00 0.197 0.092 0.8094 0.9085 
0.305 3.00 3.00 0.099 0.064 0.9009 0.9099 
0.306 3.00 3.00 -0.019 0.061 0.8655 0.8764 
0.307 3.00 3.00 -0.030 0.077 0.9012 0.9093 
0.308 3.00 3.00 0.073 0.068 0.8864 0.9206 
0.309 3.00 3.00 0.178 0.064 0.9196 0.8938 
0.310 3.00 3.00 0.091 0.090 0.8975 0.8926 
0.311 3.00 3.00 0.042 0.101 0.8359 0.9306 
0.312 3.00 3.00 0.124 0.103 0.8680 0.9025 
0.313 3.00 3.00 0.070 0.075 0.9427 0.9131 
0.314 3.00 3.00 0.047 0.088 0.8810 0.8853 
0.315 3.00 3.00 0.216 0.079 0.8872 0.9059 
0.316 3.00 3.00 0.060 0.065 0.8950 0.8646 
0.317 3.00 3.00 0.108 0.080 0.8812 0.9067 
0.318 3.00 3.00 0.101 0.109 0.8958 0.9003 
0.319 3.00 3.00 0.129 0.092 0.8783 0.9097 
0.320 3.00 3.00 0.046 0.078 0.8962 0.9150 
0.321 3.00 3.00 0.118 0.088 0.8769 0.9110 
0.322 3.00 3.00 0.062 0.098 0.9047 0.9135 
0.323 3.00 3.00 0.113 0.093 0.8950 0.8613 
0.324 3.00 3.00 0.124 0.089 0.8818 0.8966 
0.325 3.00 3.00 0.132 0.099 0.9055 0.9037 
0.326 3.00 3.00 0.193 0.075 0.8106 0.8617 
0.327 3.00 3.00 0.124 0.059 0.9043 0.8964 
0.328 3.00 3.00 0.240 0.073 0.8691 0.9005 
0.329 3.00 3.00 0.032 0.083 0.9009 0.9434 
0.330 3.00 3.00 0.135 0.074 0.8892 0.9386 
0.331 3.00 3.00 0.127 0.086 0.9192 0.8571 
0.332 3.00 3.00 0.210 0.123 0.9014 0.8778 
0.333 3.00 3.00 0.257 0.102 0.8384 0.9175 
0.334 3.00 3.00 0.272 0.064 0.8671 0.8600 
0.335 3.00 3.00 0.072 0.071 0.9468 0.9151 
0.336 3.00 3.00 0.179 0.081 0.8838 0.9275 
0.337 3.00 3.00 0.227 0.082 0.8889 0.9140 
0.338 3.00 3.00 0.212 0.061 0.8982 0.9241 
0.339 3.00 3.00 0.073 0.094 0.8889 0.9040 
0.340 3.00 3.00 0.125 0.092 0.9081 0.9128 
0.341 3.00 3.00 0.149 0.081 0.8780 0.8889 
0.342 3.00 3.00 0.153 0.080 0.8964 0.9112 
0.343 3.00 3.00 0.106 0.099 0.8781 0.8848 
0.344 3.00 3.00 0.110 0.100 0.8951 0.9222 
0.345 3.00 3.00 0.052 0.080 0.9322 0.9019 
0.346 3.00 3.00 0.056 0.091 0.8816 0.9499 
0.347 3.00 3.00 0.038 0.079 0.9052 0.9043 
0.348 3.00 3.00 0.135 0.049 0.8542 0.9112 
0.349 3.00 3.00 0.113 0.052 0.9068 0.8779 
0.350 3.00 3.00 -0.017 0.076 0.8786 0.9102 
0.351 3.00 3.00 0.043 0.075 0.9009 0.9224 
0.352 3.00 3.00 0.131 0.061 0.8898 0.8632 
0.353 3.00 3.00 0.140 0.079 0.9207 0.8854 
0.354 3.00 3.00 0.064 0.101 0.7870 0.9297 
0.355 3.00 3.00 0.109 0.098 0.8549 0.9037 
0.356 3.00 3.00 0.029 0.079 0.8701 0.9010 
0.357 3.00 3.00 0.193 0.080 0.9439 0.8940 
0.358 3.00 3.00 0.157 0.092 0.8847 0.9156 
0.359 3.00 3.00 0.121 0.073 0.8910 0.8737 
0.360 3.00 3.00 0.118 0.079 0.8987 0.9158 
0.361 3.00 3.00 0.030 0.106 0.8876 0.9094 
0.362 3.00 3.00 0.227 0.098 0.9082 0.9166 
0.363 3.00 3.00 0.101 0.059 0.8802 0.9195 
0.364 3.00 3.00 0.013 0.079 0.8694 0.9160 
0.365 3.00 3.00 0.030 0.111 0.9110 0.9147 
0.366 3.00 3.00 0.048 0.101 0.8976 0.8619 
0.367 3.00 3.00 0.111 0.094 0.9325 0.8968 
0.368 3.00 3.00 0.082 0.103 0.8840 0.9019 
0.369 3.00 3.00 0.071 0.081 0.9028 0.9126 
0.370 3.00 3.00 0.109 0.065 0.8725 0.8961 
0.371 3.00 3.00 0.090 0.033 0.9087 0.9007 
0.372 3.00 3.00 0.109 0.067 0.8756 0.9425 
0.373 3.00 3.00 0.170 0.069 0.9036 0.9385 
0.374 3.00 3.00 0.163 0.080 0.9478 0.8560 
0.375 3.00 3.00 0.169 0.112 0.9162 0.8777 
0.376 3.00 3.00 0.127 0.097 0.7920 0.9175 
0.377 3.00 3.00 0.196 0.085 0.8569 0.8595 
0.378 3.00 3.00 0.064 0.082 0.8718 0.9030 
0.379 3.00 3.00 0.083 0.090 0.9203 0.9268 
0.380 3.00 3.00 0.181 0.084 0.8907 0.9135 
0.381 3.00 3.00 0.164 0.084 0.8905 0.9203 
0.382 3.00 3.00 0.161 0.105 0.9002 0.9045 
0.383 3.00 3.00 0.132 0.098 0.9182 0.9134 
0.384 3.00 3.00 0.246 0.076 0.8702 0.8885 
0.385 3.00 3.00 0.122 0.060 0.8962 0.9140 
0.386 3.00 3.00 0.077 0.082 0.8703 0.8843 
0.387 3.00 3.00 0.136 0.092 0.9124 0.9226 
0.388 3.00 3.00 0.166 0.074 0.8979 0.9024 
0.389 3.00 3.00 0.087 0.112 0.9182 0.9497 
0.390 3.00 3.00 0.109 0.102 0.8876 0.9083 
0.391 3.00 3.00 0.147 0.053 0.9039 0.9110 
0.392 3.00 3.00 0.178 0.045 0.8734 0.8784 
0.393 3.00 3.00 0.140 0.086 0.8739 0.9109 
0.394 3.00 3.00 0.106 0.081 0.9059 0.9231 
0.395 3.00 3.00 0.159 0.069 0.8920 0.8930 
0.396 3.00 3.00 0.064 0.092 0.9484 0.8958 
0.397 3.00 3.00 0.011 0.111 0.9166 0.9324 
0.398 3.00 3.00 0.018 0.091 0.7888 0.9015 
0.399 3.00 3.00 0.237 0.086 0.8722 0.9192 
0.400 3.00 3.00 0.021 0.094 0.8855 0.8942 
0.401 3.00 3.00 0.051 0.105 0.9210 0.9155 
0.402 3.00 3.00 0.064 0.081 0.8913 0.8716 
0.403 3.00 3.00 0.144 0.075 0.8973 0.9033 
0.404 3.00 3.00 0.156 0.080 0.8862 0.9053 
0.405 3.00 3.00 0.233 0.080 0.9183 0.9132 
0.406 3.00 3.00 0.106 0.062 0.8705 0.9195 
0.407 3.00 3.00 0.177 0.078 0.8967 0.9146 
0.408 3.00 3.00 0.050 0.118 0.8816 0.9142 
0.409 3.00 3.00 0.027 0.084 0.9086 0.8661 
0.410 3.00 3.00 0.173 0.075 0.8978 0.8998 
0.411 3.00 3.00 0.134 0.099 0.9192 0.9085 
0.412 3.00 3.00 0.137 0.078 0.8882 0.9152 
0.413 3.00 3.00 0.094 0.054 0.8579 0.8988 
0.414 3.00 3.00 0.117 0.069 0.9204 0.9043 
0.415 3.00 3.00 0.133 0.094 0.8744 0.9471 
0.416 3.00 3.00 0.137 0.075 0.9081 0.8100 
0.417 3.00 3.00 0.170 0.089 0.8921 0.8597 
0.418 3.00 3.00 0.102 0.128 0.9255 0.8805 
0.419 3.00 3.00 0.206 0.109 0.9034 0.9199 
0.420 3.00 3.00 0.211 0.073 0.8407 0.8601 
0.421 3.00 3.00 0.166 0.087 0.8721 0.9193 
0.422 3.00 3.00 0.189 0.094 0.8872 0.9292 
0.423 3.00 3.00 0.100 0.073 0.8861 0.9150 
0.424 3.00 3.00 0.155 0.073 0.8914 0.9244 
0.425 3.00 3.00 0.105 0.103 0.9000 0.8645 
0.426 3.00 3.00 0.130 0.098 0.8858 0.9161 
0.427 3.00 3.00 0.184 0.074 0.9104 0.8879 
0.428 3.00 3.00 0.243 0.080 0.8818 0.9157 
0.429 3.00 3.00 0.282 0.112 0.9006 0.9336 
0.430 3.00 3.00 0.071 0.114 0.8817 0.9223 
0.431 3.00 3.00 0.143 0.099 0.9094 0.9009 
0.432 3.00 3.00 0.173 0.107 0.9370 0.9486 
0.433 3.00 3.00 0.105 0.087 0.8847 0.8666 
0.434 3.00 3.00 0.170 0.068 0.9089 0.9056 
0.435 3.00 3.00 0.273 0.065 0.8562 0.8741 
0.436 3.00 3.00 0.209 0.085 0.9142 0.9046 
0.437 3.00 3.00 0.113 0.088 0.8668 0.9405 
0.438 3.00 3.00 0.060 0.074 0.8963 0.8587 
0.439 3.00 3.00 0.043 0.088 0.8849 0.8805 
0.440 3.00 3.00 0.144 0.122 0.9180 0.9220 
0.441 3.00 3.00 0.040 0.092 0.8960 0.9012 
0.442 3.00 3.00 0.098 0.080 0.8318 0.9146 
0.443 3.00 3.00 0.048 0.096 0.8649 0.8900 
0.444 3.00 3.00 0.052 0.102 0.9421 0.9116 
0.445 3.00 3.00 0.071 0.084 0.8769 0.8698 
0.446 3.00 3.00 0.227 0.108 0.8858 0.9023 
0.447 3.00 3.00 0.070 0.111 0.8943 0.9063 
0.448 3.00 3.00 0.048 0.093 0.8852 0.9145 
0.449 3.00 3.00 0.076 0.069 0.9052 0.9210 
0.450 3.00 3.00 0.195 0.098 0.8768 0.9169 
0.451 3.00 3.00 0.086 0.108 0.8949 0.9183 
0.452 3.00 3.00 0.227 0.102 0.8747 0.8662 
0.453 3.00 3.00 0.191 0.099 0.8957 0.9010 
0.454 3.00 3.00 0.287 0.091 0.9336 0.9100 
0.455 3.00 3.00 0.103 0.061 0.8831 0.9162 
0.456 3.00 3.00 0.143 0.038 0.9075 0.9003 
0.457 3.00 3.00 0.118 0.070 0.8571 0.9052 
0.458 3.00 3.00 0.204 0.096 0.9090 0.9504 
0.459 3.00 3.00 0.146 0.084 0.8814 0.8719 
0.460 3.00 3.00 0.320 0.078 0.9045 0.8766 
0.461 3.00 3.00 0.136 0.116 0.8901 0.8828 
0.462 3.00 3.00 0.233 0.111 0.9227 0.9195 
0.463 3.00 3.00 0.189 0.084 0.7896 0.9000 
0.464 3.00 3.00 0.130 0.081 0.8577 0.9206 
0.465 3.00 3.00 0.118 0.096 0.8740 0.9300 
0.466 3.00 3.00 0.006 0.096 0.9487 0.9119 
0.467 3.00 3.00 0.183 0.074 0.8823 0.9147 
0.468 3.00 3.00 0.128 0.103 0.8924 0.8664 
0.469 3.00 3.00 0.213 0.103 0.9019 0.9166 
0.470 3.00 3.00 0.048 0.080 0.8906 0.8889 
0.471 3.00 3.00 0.071 0.068 0.9106 0.9156 
0.472 3.00 3.00 0.227 0.107 0.8834 0.9368 
0.473 3.00 3.00 0.070 0.070 0.8717 0.9223 
0.474 3.00 3.00 0.246 0.043 0.9138 0.9010 
0.475 3.00 3.00 0.058 0.109 0.9000 0.9310 
0.476 3.00 3.00 0.086 0.087 0.9369 0.8698 
0.477 3.00 3.00 -0.016 0.061 0.8893 0.9102 
0.478 3.00 3.00 0.037 0.040 0.9051 0.8789 
0.479 3.00 3.00 0.049 0.076 0.8741 0.9106 
0.480 3.00 3.00 0.189 0.083 0.9109 0.9442 
0.481 3.00 3.00 0.047 0.073 0.8820 0.8961 
0.482 3.00 3.00 0.065 0.103 0.8912 0.8919 
0.483 3.00 3.00 0.200 0.115 0.9463 0.9318 
0.484 3.00 3.00 0.069 0.082 0.9147 0.8642 
0.485 3.00 3.00 -0.014 0.055 0.7881 0.9189 
0.486 3.00 3.00 0.086 0.084 0.8553 0.8941 
0.487 3.00 3.00 0.098 0.094 0.8812 0.9156 
0.488 3.00 3.00 -0.002 0.074 0.9176 0.9272 
0.489 3.00 3.00 0.139 0.108 0.8852 0.9074 
0.490 3.00 3.00 0.280 0.112 0.8848 0.9095 
0.491 3.00 3.00 0.077 0.084 0.8930 0.9187 
0.492 3.00 3.00 0.062 0.066 0.9103 0.9160 
0.493 3.00 3.00 0.132 0.082 0.8634 0.8822 
0.494 3.00 3.00 0.148 0.103 0.8896 0.9214 
0.495 3.00 3.00 0.019 0.081 0.8645 0.8666 
0.496 3.00 3.00 0.080 0.093 0.9022 0.9442 
0.497 3.00 3.00 0.074 0.106 0.8932 0.9010 
0.498 3.00 3.00 0.042 0.061 0.9129 0.9107 
0.499 3.00 3.00 -0.038 0.050 0.8826 0.8955 
0.500 3.00 3.00 0.006 0.067 0.8982 0.9009 
0.501 4.00 4.00 0.070 0.087 0.8684 0.9156 
0.502 4.00 4.00 0.083 0.098 0.9046 0.8088 
0.503 4.00 4.00 0.187 0.187 0.9066 0.8559 
0.504 4.00 4.00 0.251 0.274 0.8966 0.8849 
0.505 4.00 4.00 0.287 0.302 0.9592 0.9156 
0.506 4.00 4.00 0.314 0.300 0.9360 0.9193 
0.507 4.00 4.00 0.352 0.282 0.8996 0.9464 
0.508 4.00 4.00 0.353 0.289 0.9169 0.9508 
0.509 4.00 4.00 0.266 0.301 0.9326 0.9137 
0.510 4.00 4.00 0.290 0.313 0.9437 0.9660 
0.511 4.00 4.00 0.303 0.311 0.9537 0.9695 
0.512 4.00 4.00 0.279 0.282 0.9694 0.9837 
0.513 4.00 4.00 0.284 0.258 0.9685 0.9981 
0.514 4.00 4.00 0.320 0.253 0.9954 0.9607 
0.515 4.00 4.00 0.306 0.282 0.9833 1.0060 
0.516 4.00 4.00 0.233 0.280 0.9543 0.9938 
0.517 4.00 4.00 0.300 0.286 1.0040 1.0500 
0.518 4.00 4.00 0.297 0.245 0.9935 0.9710 
0.519 4.00 4.00 0.305 0.202 1.0234 1.0196 
0.520 4.00 4.00 0.285 0.183 1.0204 1.0236 
0.521 4.00 4.00 0.241 0.217 0.9671 1.0798 
0.522 4.00 4.00 0.236 0.222 1.0341 0.9943 
0.523 4.00 4.00 0.227 0.255 1.0062 1.0224 
0.524 4.00 4.00 0.273 0.252 1.0241 1.0682 
0.525 4.00 4.00 0.284 0.234 1.0703 0.9909 
0.526 4.00 4.00 0.363 0.216 1.0491 1.0552 
0.527 4.00 4.00 0.304 0.210 1.0172 1.0750 
0.528 4.00 4.00 0.220 0.214 1.0279 1.0607 
0.529 4.00 4.00 0.202 0.221 1.0857 1.0669 
0.530 4.00 4.00 0.212 0.245 1.0558 1.0620 
0.531 4.00 4.00 0.221 0.229 1.0709 1.0768 
0.532 4.00 4.00 0.216 0.190 1.0634 1.0799 
0.533 4.00 4.00 0.223 0.188 1.0848 1.1101 
0.534 4.00 4.00 0.210 0.202 1.0817 1.0950 
0.535 4.00 4.00 0.196 0.191 1.0649 1.0766 
0.536 4.00 4.00 0.189 0.204 1.0952 1.0831 
0.537 4.00 4.00 0.211 0.188 1.1407 1.0991 
0.538 4.00 4.00 0.197 0.172 1.0836 1.0563 
0.539 4.00 4.00 0.208 0.156 1.1067 1.1507 
0.540 4.00 4.00 0.208 0.172 1.1312 1.1395 
0.541 4.00 4.00 0.174 0.188 1.0857 1.0660 
0.542 4.00 4.00 0.231 0.211 1.1014 1.1370 
0.543 4.00 4.00 0.180 0.196 1.1771 1.0557 
0.544 4.00 4.00 0.143 0.164 1.1220 1.1242 
0.545 4.00 4.00 0.218 0.157 1.0770 1.1447 
0.546 4.00 4.00 0.168 0.156 1.0847 1.0738 
0.547 4.00 4.00 0.182 0.162 1.1415 1.1176 
0.548 4.00 4.00 0.226 0.169 1.1073 1.1259 
0.549 4.00 4.00 0.235 0.159 1.1246 1.0993 
0.550 4.00 4.00 0.151 0.148 1.1117 1.1378 
0.551 4.00 4.00 0.221 0.170 1.0885 1.1410 
0.552 4.00 4.00 0.153 0.168 1.1335 1.1261 
0.553 4.00 4.00 0.193 0.191 1.1537 1.1827 
0.554 4.00 4.00 0.180 0.165 1.1334 1.0895 
0.555 4.00 4.00 0.160 0.124 1.1591 1.1346 
0.556 4.00 4.00 0.146 0.110 1.1547 1.1449 
0.557 4.00 4.00 0.242 0.133 1.1094 1.1872 
0.558 4.00 4.00 0.148 0.135 1.1115 1.1330 
0.559 4.00 4.00 0.148 0.172 1.1548 1.1208 
0.560 4.00 4.00 0.168 0.177 1.1399 1.1433 
0.561 4.00 4.00 0.181 0.145 1.1722 1.1670 
0.562 4.00 4.00 0.165 0.134 1.1186 1.1866 
0.563 4.00 4.00 0.266 0.133 1.1282 1.1128 
0.564 4.00 4.00 0.180 0.142 1.1861 1.1259 
0.565 4.00 4.00 0.170 0.156 1.1471 1.1620 
0.566 4.00 4.00 0.149 0.134 1.1644 1.1384 
0.567 4.00 4.00 0.130 0.122 1.1506 1.1744 
0.568 4.00 4.00 0.148 0.129 1.1252 1.1785 
0.569 4.00 4.00 0.182 0.135 1.1696 1.1573 
0.570 4.00 4.00 0.116 0.164 1.1886 1.1651 
0.571 4.00 4.00 0.169 0.142 1.1677 1.1775 
0.572 4.00 4.00 0.128 0.104 1.1519 1.1637 
0.573 4.00 4.00 0.117 0.107 1.1816 1.1721 
0.574 4.00 4.00 0.268 0.115 1.1392 1.2156 
0.575 4.00 4.00 0.099 0.115 1.1411 1.1362 
0.576 4.00 4.00 0.202 0.148 1.1875 1.2078 
0.577 4.00 4.00 0.201 0.110 1.2452 1.1202 
0.578 4.00 4.00 0.135 0.098 1.1851 1.1922 
0.579 4.00 4.00 0.190 0.121 1.1419 1.1896 
0.580 4.00 4.00 0.097 0.096 1.1662 1.2072 
0.581 4.00 4.00 0.105 0.128 1.1688 1.1281 
0.582 4.00 4.00 0.135 0.140 1.1770 1.1952 
0.583 4.00 4.00 0.098 0.109 1.1886 1.2090 
0.584 4.00 4.00 0.152 0.128 1.2125 1.1545 
0.585 4.00 4.00 0.121 0.128 1.1582 1.2051 
0.586 4.00 4.00 0.092 0.120 1.1444 1.1841 
0.587 4.00 4.00 0.110 0.137 1.1966 1.1927 
0.588 4.00 4.00 0.125 0.107 1.2362 1.1939 
0.589 4.00 4.00 0.110 0.080 1.1695 1.1886 
0.590 4.00 4.00 0.111 0.089 1.1292 1.2129 
0.591 4.00 4.00 0.094 0.088 1.1990 1.1821 
0.592 4.00 4.00 0.105 0.134 1.2033 1.1643 
0.593 4.00 4.00 0.103 0.149 1.1805 1.1876 
0.594 4.00 4.00 0.113 0.114 1.2099 1.2092 
0.595 4.00 4.00 0.095 0.114 1.1221 1.2293 
0.596 4.00 4.00 0.099 0.118 1.1666 1.1512 
0.597 4.00 4.00 0.121 0.116 1.2578 1.1882 
0.598 4.00 4.00 0.199 0.126 1.1846 1.2078 
0.599 4.00 4.00 0.166 0.099 1.2003 1.2159 
0.600 4.00 4.00 0.103 0.086 1.1810 1.2078 
0.601 4.00 4.00 0.130 0.120 1.1561 1.2134 
0.602 4.00 4.00 0.204 0.118 1.2016 1.1919 
0.603 4.00 4.00 0.121 0.145 1.2217 1.1974 
0.604 4.00 4.00 0.089 0.133 1.1942 1.2108 
0.605 4.00 4.00 0.087 0.098 1.1778 1.1621 
0.606 4.00 4.00 0.154 0.102 1.2066 1.2627 
0.607 4.00 4.00 0.136 0.091 1.2299 1.1560 
0.608 4.00 4.00 0.086 0.114 1.1763 1.1810 
0.609 4.00 4.00 0.113 0.148 1.2087 1.2262 
0.610 4.00 4.00 0.140 0.118 1.2388 1.1991 
0.611 4.00 4.00 0.114 0.102 1.2076 1.1865 
0.612 4.00 4.00 0.123 0.115 1.1585 1.2175 
0.613 4.00 4.00 0.107 0.113 1.1922 1.2200 
0.614 4.00 4.00 0.128 0.133 1.1895 1.2137 
0.615 4.00 4.00 0.139 0.111 1.1946 1.1867 
0.616 4.00 4.00 0.092 0.105 1.1837 1.2230 
0.617 4.00 4.00 0.102 0.112 1.2215 1.2302 
0.618 4.00 4.00 0.094 0.099 1.2053 1.2082 
0.619 4.00 4.00 0.054 0.122 1.1816 1.2159 
0.620 4.00 4.00 0.113 0.120 1.2025 1.2262 
0.621 4.00 4.00 0.173 0.087 1.2345 1.1764 
0.622 4.00 4.00 0.112 0.093 1.2222 1.2796 
0.623 4.00 4.00 0.139 0.088 1.1705 1.1710 
0.624 4.00 4.00 0.060 0.123 1.1748 1.1951 
0.625 4.00 4.00 0.136 0.140 1.2134 1.2404 
0.626 4.00 4.00 0.182 0.119 1.2751 1.2119 
0.627 4.00 4.00 0.098 0.105 1.2106 1.1962 
0.628 4.00 4.00 0.126 -0.011 1.1674 1.2292 
0.629 4.00 4.00 0.108 0.081 1.1909 1.2307 
0.630 4.00 4.00 0.031 0.120 1.1937 1.2259 
0.631 4.00 4.00 0.159 0.092 1.2000 1.1968 
0.632 4.00 4.00 0.094 0.076 1.1873 1.2319 
0.633 4.00 4.00 0.121 0.107 1.2224 1.2399 
0.634 4.00 4.00 0.120 0.102 1.1841 1.2171 
0.635 4.00 4.00 0.105 0.119 1.1686 1.2219 
0.636 4.00 4.00 0.130 0.108 1.2223 1.2294 
0.637 4.00 4.00 0.102 0.089 1.2619 1.1786 
0.638 4.00 4.00 0.048 0.089 1.1935 1.2802 
0.639 4.00 4.00 0.128 0.077 1.1466 1.1717 
0.640 4.00 4.00 0.070 0.103 1.2262 1.1957 
0.641 4.00 4.00 0.048 0.131 1.2248 1.2404 
0.642 4.00 4.00 0.102 0.109 1.2000 1.2128 
0.643 4.00 4.00 0.067 0.107 1.2324 1.1977 
0.644 4.00 4.00 0.119 0.092 1.1714 1.2281 
0.645 4.00 4.00 0.124 0.094 1.1853 1.2346 
0.646 4.00 4.00 0.082 0.131 1.2401 1.2248 
0.647 4.00 4.00 0.110 0.107 1.1976 1.1960 
0.648 4.00 4.00 0.071 0.092 1.2150 1.2333 
0.649 4.00 4.00 0.131 0.114 1.2418 1.2396 
0.650 4.00 4.00 0.084 0.097 1.1875 1.2156 
0.651 4.00 4.00 0.093 0.122 1.1719 1.2250 
0.652 4.00 4.00 0.096 0.097 1.2212 1.2336 
0.653 4.00 4.00 0.128 0.069 1.2597 1.1845 
0.654 4.00 4.00 0.107 0.074 1.1921 1.2794 
0.655 4.00 4.00 0.128 0.071 1.1495 1.1784 
0.656 4.00 4.00 0.136 0.103 1.2240 1.2022 
0.657 4.00 4.00 0.070 0.127 1.2222 1.2443 
0.658 4.00 4.00 0.102 0.097 1.1982 1.2189 
0.659 4.00 4.00 -0.006 0.093 1.2311 1.2035 
0.660 4.00 4.00 0.076 0.085 1.1718 1.2346 
0.661 4.00 4.00 0.212 0.099 1.1826 1.1852 
0.662 4.00 4.00 0.088 0.121 1.2387 1.2442 
0.663 4.00 4.00 0.143 0.099 1.1989 1.2473 
0.664 4.00 4.00 0.102 0.111 1.2133 1.1941 
0.665 4.00 4.00 0.079 0.107 1.2398 1.2412 
0.666 4.00 4.00 0.094 0.071 1.1700 1.2211 
0.667 4.00 4.00 0.086 0.108 1.2165 1.2309 
0.668 4.00 4.00 0.091 0.096 1.2364 1.2291 
0.669 4.00 4.00 0.111 0.080 1.2089 1.2232 
0.670 4.00 4.00 0.094 0.069 1.1915 1.2476 
0.671 4.00 4.00 0.140 0.069 1.2201 1.2149 
0.672 4.00 4.00 0.074 0.111 1.2434 1.1985 
0.673 4.00 4.00 0.197 0.125 1.1889 1.2208 
0.674 4.00 4.00 0.154 0.111 1.1995 1.2437 
0.675 4.00 4.00 0.103 0.100 1.2521 1.2630 
0.676 4.00 4.00 0.235 0.083 1.1409 1.1814 
0.677 4.00 4.00 0.179 0.098 1.1891 1.2240 
0.678 4.00 4.00 0.044 0.119 1.2801 1.2454 
0.679 4.00 4.00 0.083 0.076 1.2081 1.2558 
0.680 4.00 4.00 0.132 0.078 1.2201 1.1961 
0.681 4.00 4.00 0.052 0.073 1.2018 1.2449 
0.682 4.00 4.00 0.107 0.075 1.1739 1.2233 
0.683 4.00 4.00 0.077 0.099 1.2198 1.2313 
0.684 4.00 4.00 0.053 0.069 1.2394 1.2307 
0.685 4.00 4.00 0.087 0.074 1.2132 1.2254 
0.686 4.00 4.00 0.111 0.090 1.1953 1.2502 
0.687 4.00 4.00 0.135 0.056 1.2247 1.2175 
0.688 4.00 4.00 0.115 0.113 1.2476 1.1999 
0.689 4.00 4.00 0.042 0.122 1.1920 1.2215 
0.690 4.00 4.00 0.161 0.078 1.2042 1.2449 
0.691 4.00 4.00 0.107 0.088 1.2538 1.2636 
0.692 4.00 4.00 0.098 0.089 1.1436 1.2599 
0.693 4.00 4.00 0.097 0.108 1.1920 1.2179 
0.694 4.00 4.00 0.073 0.115 1.2839 1.2423 
0.695 4.00 4.00 0.125 0.085 1.2118 1.2424 
0.696 4.00 4.00 0.123 0.101 1.2238 1.2767 
0.697 4.00 4.00 0.081 0.100 1.2043 1.1758 
0.698 4.00 4.00 0.083 0.089 1.1763 1.2838 
0.699 4.00 4.00 0.098 0.098 1.2227 1.1807 
0.700 4.00 4.00 0.069 0.074 1.2409 1.2255 
0.701 4.00 4.00 0.132 0.068 1.2171 1.2321 
0.702 4.00 4.00 0.080 0.078 1.1975 1.2758 
0.703 4.00 4.00 0.092 0.069 1.2239 1.1908 
0.704 4.00 4.00 0.104 0.122 1.2429 1.2652 
0.705 4.00 4.00 0.043 0.120 1.1898 1.1711 
0.706 4.00 4.00 0.117 0.107 1.2003 1.2449 
0.707 4.00 4.00 0.086 0.084 1.2513 1.2416 
0.708 4.00 4.00 0.086 0.058 1.1399 1.2614 
0.709 4.00 4.00 0.200 0.092 1.1890 1.1735 
0.710 4.00 4.00 0.064 0.096 1.2806 1.2441 
0.711 4.00 4.00 0.116 0.075 1.2081 1.2435 
0.712 4.00 4.00 0.123 0.097 1.2206 1.2743 
0.713 4.00 4.00 0.121 0.076 1.2034 1.1761 
0.714 4.00 4.00 0.143 0.088 1.1694 1.2844 
0.715 4.00 4.00 0.103 0.107 1.2199 1.1815 
0.716 4.00 4.00 0.075 0.076 1.2378 1.2281 
0.717 4.00 4.00 0.238 0.082 1.2128 1.2341 
0.718 4.00 4.00 0.179 0.084 1.1951 1.1854 
0.719 4.00 4.00 0.122 0.082 1.2243 1.2118 
0.720 4.00 4.00 0.128 0.125 1.2472 1.2549 
0.721 4.00 4.00 0.057 0.110 1.1753 1.2218 
0.722 4.00 4.00 0.145 0.080 1.2264 1.2107 
0.723 4.00 4.00 0.092 0.090 1.2538 1.2430 
0.724 4.00 4.00 0.129 0.076 1.2200 1.2383 
0.725 4.00 4.00 0.189 0.111 1.1792 1.2382 
0.726 4.00 4.00 0.082 0.099 1.2047 1.2081 
0.727 4.00 4.00 0.090 0.075 1.2013 1.2454 
0.728 4.00 4.00 0.062 0.004 1.2069 1.2512 
0.729 4.00 4.00 0.073 0.062 1.1978 1.2293 
0.730 4.00 4.00 -0.014 0.101 1.2346 1.2350 
0.731 4.00 4.00 0.071 0.104 1.2132 1.2433 
0.732 4.00 4.00 0.077 0.066 1.1915 1.1950 
0.733 4.00 4.00 0.110 0.088 1.2171 1.2963 
0.734 4.00 4.00 0.088 0.073 1.2492 1.1870 
0.735 4.00 4.00 0.108 0.077 1.2351 1.2105 
0.736 4.00 4.00 0.113 0.100 1.1860 1.2550 
0.737 4.00 4.00 0.072 0.092 1.1839 1.2272 
0.738 4.00 4.00 0.107 0.100 1.2185 1.2116 
0.739 4.00 4.00 0.124 0.099 1.2919 1.2405 
0.740 4.00 4.00 0.206 0.095 1.2277 1.2426 
0.741 4.00 4.00 0.165 0.110 1.1817 1.2361 
0.742 4.00 4.00 0.080 0.091 1.2074 1.2060 
0.743 4.00 4.00 0.097 0.081 1.2023 1.2279 
0.744 4.00 4.00 0.118 0.096 1.2103 1.2482 
0.745 4.00 4.00 0.077 0.079 1.1991 1.2263 
0.746 4.00 4.00 0.090 0.096 1.2400 1.2363 
0.747 4.00 4.00 0.084 0.076 1.2218 1.2338 
0.748 4.00 4.00 0.083 0.075 1.1979 1.2277 
0.749 4.00 4.00 0.083 0.099 1.2178 1.2525 
0.750 4.00 4.00 0.166 0.073 1.2510 1.2195 
0.751 4.00 4.00 0.102 0.100 1.2360 1.2030 
0.752 4.00 4.00 0.110 0.112 1.1856 1.2240 
0.753 4.00 4.00 0.051 0.081 1.1843 1.2480 
0.754 4.00 4.00 0.084 0.096 1.2293 1.2667 
0.755 4.00 4.00 0.127 0.089 1.2931 1.1842 
0.756 4.00 4.00 0.113 0.083 1.2264 1.2277 
0.757 4.00 4.00 0.107 0.110 1.1828 1.2486 
0.758 4.00 4.00 0.080 0.093 1.2078 1.2589 
0.759 4.00 4.00 0.074 0.100 1.2016 1.2008 
0.760 4.00 4.00 0.134 0.083 1.2109 1.2505 
0.761 4.00 4.00 0.106 0.063 1.2006 1.2270 
0.762 4.00 4.00 0.075 0.088 1.2382 1.2388 
0.763 4.00 4.00 0.119 0.074 1.2215 1.2340 
0.764 4.00 4.00 0.024 0.089 1.1967 1.2231 
0.765 4.00 4.00 0.243 0.081 1.2181 1.2804 
0.766 4.00 4.00 0.104 0.070 1.2507 1.1952 
0.767 4.00 4.00 0.231 0.112 1.2373 1.2690 
0.768 4.00 4.00 0.031 0.101 1.1863 1.1744 
0.769 4.00 4.00 0.171 0.089 1.1866 1.2428 
0.770 4.00 4.00 0.174 0.095 1.2315 1.2456 
0.771 4.00 4.00 0.124 0.075 1.2928 1.2638 
0.772 4.00 4.00 0.056 0.086 1.2244 1.1770 
0.773 4.00 4.00 0.104 0.083 1.1838 1.2455 
0.774 4.00 4.00 0.037 0.052 1.2094 1.2457 
0.775 4.00 4.00 0.087 0.089 1.2097 1.2772 
0.776 4.00 4.00 0.113 0.077 1.2120 1.1783 
0.777 4.00 4.00 0.065 0.086 1.2015 1.2858 
0.778 4.00 4.00 0.092 0.102 1.2402 1.1826 
0.779 4.00 4.00 0.087 0.075 1.2242 1.2271 
0.780 4.00 4.00 0.068 0.088 1.1986 1.2342 
0.781 4.00 4.00 0.085 0.078 1.2195 1.2794 
0.782 4.00 4.00 0.073 0.079 1.2492 1.1925 
0.783 4.00 4.00 0.073 0.121 1.2412 1.2672 
0.784 4.00 4.00 0.136 0.099 1.1875 1.1711 
0.785 4.00 4.00 0.098 0.107 1.1873 1.2484 
0.786 4.00 4.00 0.101 0.111 1.2316 1.2452 
0.787 4.00 4.00 0.103 0.089 1.2946 1.2608 
0.788 4.00 4.00 0.097 0.102 1.2278 1.1772 
0.789 4.00 4.00 0.109 0.083 1.1849 1.2428 
0.790 4.00 4.00 0.069 0.084 1.2111 1.2450 
0.791 4.00 4.00 0.097 0.112 1.2065 1.2510 
0.792 4.00 4.00 0.092 0.098 1.2130 1.2235 
0.793 4.00 4.00 0.203 0.095 1.2021 1.2371 
0.794 4.00 4.00 0.166 0.077 1.2388 1.2440 
0.795 4.00 4.00 0.122 0.075 1.2191 1.1940 
0.796 4.00 4.00 0.091 0.070 1.1947 1.2993 
0.797 4.00 4.00 0.146 0.067 1.2159 1.1888 
0.798 4.00 4.00 0.083 0.084 1.2474 1.2111 
0.799 4.00 4.00 0.114 0.111 1.2341 1.2554 
0.800 4.00 4.00 0.136 0.087 1.1839 1.2262 
0.801 4.00 4.00 0.092 0.092 1.1850 1.2099 
0.802 4.00 4.00 0.084 0.095 1.2277 1.2373 
0.803 4.00 4.00 0.100 0.080 1.2909 1.2395 
0.804 4.00 4.00 0.066 0.096 1.2263 1.2350 
0.805 4.00 4.00 0.103 0.083 1.1817 1.2024 
0.806 4.00 4.00 0.075 0.084 1.2076 1.2412 
0.807 4.00 4.00 0.075 0.108 1.2099 1.2473 
0.808 4.00 4.00 0.118 0.103 1.2088 1.2258 
0.809 4.00 4.00 0.060 0.121 1.1996 1.2326 
0.810 4.00 4.00 0.220 0.090 1.2390 1.2409 
0.811 4.00 4.00 0.114 0.063 1.2212 1.1845 
0.812 4.00 4.00 0.048 0.079 1.1964 1.2961 
0.813 4.00 4.00 0.068 0.078 1.2177 1.1846 
0.814 4.00 4.00 0.087 0.100 1.2496 1.2078 
0.815 4.00 4.00 0.064 0.118 1.2366 1.1883 
0.816 4.00 4.00 0.127 0.095 1.1859 1.2467 
0.817 4.00 4.00 0.065 0.097 1.1860 1.2660 
0.818 4.00 4.00 0.089 0.092 1.2302 1.1830 
0.819 4.00 4.00 0.074 0.085 1.2929 1.2266 
0.820 4.00 4.00 0.065 0.100 1.2269 1.2477 
0.821 4.00 4.00 0.214 0.081 1.1817 1.2549 
0.822 4.00 4.00 0.089 0.081 1.2091 1.2002 
0.823 4.00 4.00 0.052 0.103 1.2092 1.2492 
0.824 4.00 4.00 0.134 0.092 1.2122 1.2278 
0.825 4.00 4.00 0.102 0.104 1.2010 1.2385 
0.826 4.00 4.00 0.081 0.080 1.2367 1.2365 
0.827 4.00 4.00 0.128 0.076 1.2186 1.2307 
0.828 4.00 4.00 0.090 0.094 1.1911 1.2567 
0.829 4.00 4.00 0.111 0.073 1.2135 1.2228 
0.830 4.00 4.00 0.093 0.104 1.2448 1.2079 
0.831 4.00 4.00 0.086 0.092 1.2328 1.2289 
0.832 4.00 4.00 0.116 0.083 1.1815 1.2515 
0.833 4.00 4.00 0.086 0.103 1.1818 1.2659 
0.834 4.00 4.00 0.076 0.096 1.2259 1.1892 
0.835 4.00 4.00 0.102 0.112 1.2889 1.2337 
0.836 4.00 4.00 0.109 0.096 1.2239 1.2532 
0.837 4.00 4.00 0.175 0.063 1.1795 1.2490 
0.838 4.00 4.00 0.102 0.101 1.2057 1.2802 
0.839 4.00 4.00 0.096 0.092 1.2078 1.1817 
0.840 4.00 4.00 0.076 0.090 1.2078 1.2903 
0.841 4.00 4.00 0.094 0.099 1.1990 1.1873 
0.842 4.00 4.00 0.093 0.057 1.2365 1.2341 
0.843 4.00 4.00 0.144 0.075 1.2198 1.2412 
0.844 4.00 4.00 0.087 0.095 1.1943 1.2856 
0.845 4.00 4.00 0.143 0.076 1.2169 1.1985 
0.846 4.00 4.00 0.178 0.110 1.2489 1.2728 
0.847 4.00 4.00 0.130 0.080 1.2362 1.1774 
0.848 4.00 4.00 0.110 0.076 1.1812 1.2517 
0.849 4.00 4.00 0.064 0.103 1.1853 1.2470 
0.850 4.00 4.00 0.069 0.088 1.2295 1.2665 
0.851 4.00 4.00 0.102 0.082 1.2918 1.1789 
0.852 4.00 4.00 0.059 0.084 1.2265 1.2441 
0.853 4.00 4.00 0.240 0.078 1.1824 1.2397 
0.854 4.00 4.00 0.202 0.119 1.2090 1.2706 
0.855 4.00 4.00 0.227 0.094 1.2090 1.1652 
0.856 4.00 4.00 0.296 0.094 1.2106 1.2211 
0.857 4.00 4.00 0.122 0.077 1.2044 1.2402 
0.858 4.00 4.00 0.139 0.042 1.2410 1.1902 
0.859 4.00 4.00 0.108 0.076 1.2235 1.2917 
0.860 4.00 4.00 0.066 0.086 1.1983 1.1843 
0.861 4.00 4.00 0.078 0.109 1.2201 1.2067 
0.862 4.00 4.00 0.098 0.129 1.2520 1.2521 
0.863 4.00 4.00 0.226 0.088 1.2381 1.2263 
0.864 4.00 4.00 0.158 0.083 1.1877 1.2109 
0.865 4.00 4.00 0.094 0.082 1.1880 1.2413 
0.866 4.00 4.00 0.094 0.084 1.2297 1.2451 
0.867 4.00 4.00 0.102 0.053 1.2947 1.2381 
0.868 4.00 4.00 0.071 0.087 1.2284 1.2085 
0.869 4.00 4.00 0.103 0.082 1.1843 1.2460 
0.870 4.00 4.00 0.091 0.096 1.2101 1.2521 
0.871 4.00 4.00 0.088 0.079 1.2120 1.2292 
0.872 4.00 4.00 0.170 0.092 1.2148 1.2394 
0.873 4.00 4.00 0.216 0.088 1.2038 1.2469 
0.874 4.00 4.00 0.117 0.057 1.2408 1.1995 
0.875 4.00 4.00 0.086 0.081 1.2241 1.3023 
0.876 4.00 4.00 0.092 0.073 1.1994 1.1922 
0.877 4.00 4.00 0.114 0.088 1.2232 1.2161 
0.878 4.00 4.00 0.125 0.120 1.2539 1.2606 
0.879 4.00 4.00 0.170 0.092 1.2395 1.2260 
0.880 4.00 4.00 0.108 0.106 1.1890 1.2723 
0.881 4.00 4.00 0.095 0.093 1.1887 1.1879 
0.882 4.00 4.00 0.105 0.065 1.2344 1.2295 
0.883 4.00 4.00 0.132 0.096 1.2962 1.2538 
0.884 4.00 4.00 0.101 0.003 1.2303 1.2637 
0.885 4.00 4.00 0.057 0.060 1.1852 1.1997 
0.886 4.00 4.00 0.055 0.087 1.2112 1.2540 
0.887 4.00 4.00 0.065 0.083 1.2123 1.2330 
0.888 4.00 4.00 0.173 0.111 1.2143 1.2439 
0.889 4.00 4.00 0.071 0.076 1.2043 1.2412 
0.890 4.00 4.00 0.113 0.064 1.2418 1.2314 
0.891 4.00 4.00 0.126 0.096 1.2250 1.2524 
0.892 4.00 4.00 0.040 0.075 1.2004 1.2178 
0.893 4.00 4.00 0.095 0.107 1.2215 1.2017 
0.894 4.00 4.00 0.081 0.104 1.2540 1.2228 
0.895 4.00 4.00 0.197 0.069 1.2398 1.2449 
0.896 4.00 4.00 0.238 0.092 1.1915 1.2663 
0.897 4.00 4.00 0.112 0.103 1.1910 1.1836 
0.898 4.00 4.00 0.114 0.107 1.2311 1.2264 
0.899 4.00 4.00 0.090 0.102 1.2908 1.2479 
0.900 4.00 4.00 0.060 0.072 1.2263 1.2561 
0.901 4.00 4.00 0.150 0.092 1.1821 1.2753 
0.902 4.00 4.00 0.071 0.101 1.2080 1.1745 
0.903 4.00 4.00 0.099 0.094 1.2088 1.2862 
0.904 4.00 4.00 0.105 0.109 1.2099 1.1834 
0.905 4.00 4.00 0.096 0.080 1.2011 1.2261 
0.906 4.00 4.00 0.195 0.075 1.2385 1.2365 
0.907 4.00 4.00 0.106 0.089 1.2225 1.2800 
0.908 4.00 4.00 0.090 0.089 1.1980 1.1942 
0.909 4.00 4.00 0.128 0.129 1.2198 1.2697 
0.910 4.00 4.00 0.237 0.103 1.2520 1.1761 
0.911 4.00 4.00 0.131 0.078 1.2382 1.2496 
0.912 4.00 4.00 0.212 0.109 1.1880 1.2472 
0.913 4.00 4.00 0.096 0.082 1.1874 1.2635 
0.914 4.00 4.00 0.129 0.093 1.2312 1.1775 
0.915 4.00 4.00 0.104 0.103 1.2946 1.2484 
0.916 4.00 4.00 0.105 0.071 1.2288 1.2468 
0.917 4.00 4.00 0.132 0.086 1.1840 1.2797 
0.918 4.00 4.00 0.098 0.076 1.2103 1.1794 
0.919 4.00 4.00 0.047 0.098 1.2140 1.2904 
0.920 4.00 4.00 0.110 0.092 1.2124 1.1898 
0.921 4.00 4.00 0.103 0.069 1.2029 1.2324 
0.922 4.00 4.00 0.102 0.080 1.2418 1.3006 
0.923 4.00 4.00 0.148 0.084 1.2239 1.1877 
0.924 4.00 4.00 0.041 0.101 1.1998 1.2133 
0.925 4.00 4.00 0.089 0.130 1.2228 1.2573 
0.926 4.00 4.00 0.083 0.098 1.2536 1.2295 
0.927 4.00 4.00 0.120 0.086 1.2396 1.2141 
0.928 4.00 4.00 0.094 0.084 1.1887 1.2467 
0.929 4.00 4.00 0.026 0.066 1.1888 1.2483 
0.930 4.00 4.00 0.086 0.103 1.2325 1.2412 
0.931 4.00 4.00 0.105 0.089 1.2955 1.2091 
0.932 4.00 4.00 0.080 0.061 1.2299 1.2459 
0.933 4.00 4.00 0.103 0.087 1.1860 1.2503 
0.934 4.00 4.00 0.115 0.100 1.2123 1.2274 
0.935 4.00 4.00 0.082 0.133 1.2125 1.2354 
0.936 4.00 4.00 0.126 0.108 1.2142 1.2430 
0.937 4.00 4.00 0.076 0.079 1.2036 1.1933 
0.938 4.00 4.00 0.103 0.081 1.2422 1.2958 
0.939 4.00 4.00 0.041 0.078 1.2264 1.1861 
0.940 4.00 4.00 0.076 0.107 1.2008 1.2105 
0.941 4.00 4.00 0.131 0.122 1.2219 1.2479 
0.942 4.00 4.00 0.117 0.084 1.2538 1.2235 
0.943 4.00 4.00 0.114 0.091 1.2402 1.2068 
0.944 4.00 4.00 0.121 0.084 1.1895 1.2433 
0.945 4.00 4.00 0.111 0.091 1.1889 1.2284 
0.946 4.00 4.00 0.075 0.115 1.2332 1.2496 
0.947 4.00 4.00 0.109 0.091 1.2972 1.2591 
0.948 4.00 4.00 0.077 0.069 1.2295 1.2001 
0.949 4.00 4.00 0.130 0.084 1.1861 1.2503 
0.950 4.00 4.00 0.196 0.073 1.2119 1.2285 
0.951 4.00 4.00 0.075 0.102 1.2129 1.2398 
0.952 4.00 4.00 0.100 0.091 1.2143 1.2374 
0.953 4.00 4.00 0.072 0.065 1.2044 1.2321 
0.954 4.00 4.00 0.075 0.073 1.2420 1.2558 
0.955 4.00 4.00 0.131 0.065 1.2244 1.2228 
0.956 4.00 4.00 0.068 0.117 1.1973 1.2052 
0.957 4.00 4.00 0.123 0.130 1.2181 1.2289 
0.958 4.00 4.00 0.118 0.101 1.2503 1.2508 
0.959 4.00 4.00 0.124 0.104 1.2344 1.2708 
0.960 4.00 4.00 0.110 0.095 1.1862 1.1871 
0.961 4.00 4.00 0.109 0.106 1.1859 1.2319 
0.962 4.00 4.00 0.115 0.096 1.2303 1.2507 
0.963 4.00 4.00 0.098 0.079 1.2947 1.2605 
0.964 4.00 4.00 0.079 0.098 1.2263 1.2004 
0.965 4.00 4.00 0.226 0.088 1.1825 1.2316 
0.966 4.00 4.00 0.141 0.082 1.2082 1.2851 
0.967 4.00 4.00 0.056 0.102 1.2092 1.1879 
0.968 4.00 4.00 0.124 0.130 1.2115 1.2330 
0.969 4.00 4.00 0.083 0.079 1.2012 1.2352 
0.970 4.00 4.00 0.230 0.075 1.2394 1.2834 
0.971 4.00 4.00 0.153 0.072 1.2222 1.1977 
0.972 4.00 4.00 0.203 0.119 1.1987 1.2739 
0.973 4.00 4.00 0.174 0.109 1.2199 1.1765 
0.974 4.00 4.00 0.126 0.088 1.2505 1.2497 
0.975 4.00 4.00 0.102 0.083 1.2335 1.2440 
0.976 4.00 4.00 0.136 0.073 1.1839 1.2609 
0.977 4.00 4.00 0.069 0.110 1.1845 1.1770 
0.978 4.00 4.00 0.125 0.097 1.2259 1.2449 
0.979 4.00 4.00 0.132 0.074 1.2896 1.2451 
0.980 4.00 4.00 0.073 0.098 1.2235 1.2775 
0.981 4.00 4.00 0.098 0.088 1.1791 1.1775 
0.982 4.00 4.00 0.091 0.094 1.2064 1.2866 
0.983 4.00 4.00 0.071 0.091 1.2059 1.1850 
0.984 4.00 4.00 0.128 0.062 1.2105 1.2304 
0.985 4.00 4.00 0.094 0.079 1.1998 1.2993 
0.986 4.00 4.00 0.093 0.062 1.2367 1.1854 
0.987 4.00 4.00 0.097 0.088 1.2203 1.2127 
0.988 4.00 4.00 0.045 0.134 1.1965 1.2575 
0.989 4.00 4.00 0.138 0.111 1.2196 1.2278 
0.990 4.00 4.00 0.140 0.064 1.2499 1.2134 
0.991 4.00 4.00 0.113 0.083 1.2363 1.2425 
0.992 4.00 4.00 0.130 0.080 1.1870 1.2471 
0.993 4.00 4.00 0.079 0.123 1.1859 1.2406 
0.994 4.00 4.00 0.137 0.074 1.2297 1.2091 
0.995 4.00 4.00 0.140 0.064 1.2918 1.2503 
0.996 4.00 4.00 0.094 0.086 1.2259 1.2538 
0.997 4.00 4.00 0.120 0.069 1.1815 1.2323 
0.998 4.00 4.00 0.100 0.091 1.2094 1.2414 
0.999 4.00 4.00 0.063 0.092 1.2090 1.2475 
1.000 4.00 4.00 0.132 0.086 1.2115 1.1973 
1.001 4.00 4.00 0.103 0.089 1.2019 1.3015 
1.002 4.00 4.00 0.121 0.069 1.2390 1.1885 
1.003 0.00 0.00 0.086 0.092 1.2243 1.2143 
1.004 0.00 0.00 -0.104 0.062 1.1972 1.2591 
1.005 0.00 0.00 -0.371 -0.295 1.2064 1.2164 
1.006 0.00 0.00 -0.645 -0.537 1.2126 1.1799 
1.007 0.00 0.00 -0.855 -0.697 1.1612 1.1823 
1.008 0.00 0.00 -0.778 -0.883 1.0713 1.1467 
1.009 0.00 0.00 -0.843 -0.874 1.1015 1.1061 
1.010 0.00 0.00 -0.938 -0.853 1.0638 1.0989 
1.011 0.00 0.00 -0.784 -0.896 1.0210 1.0599 
1.012 0.00 0.00 -0.782 -0.749 1.0236 1.0580 
1.013 0.00 0.00 -0.858 -0.764 0.9711 1.0180 
1.014 0.00 0.00 -0.797 -0.821 0.9132 0.9707 
1.015 0.00 0.00 -0.737 -0.841 0.9030 0.9463 
1.016 0.00 0.00 -0.782 -0.742 0.9281 0.8842 
1.017 0.00 0.00 -0.824 -0.749 0.7943 0.8990 
1.018 0.00 0.00 -0.647 -0.752 0.8099 0.8488 
1.019 0.00 0.00 -0.626 -0.620 0.7874 0.8626 
1.020 0.00 0.00 -0.687 -0.631 0.7713 0.8517 
1.021 0.00 0.00 -0.717 -0.690 0.7370 0.7214 
1.022 0.00 0.00 -0.646 -0.708 0.7121 0.7359 
1.023 0.00 0.00 -0.573 -0.623 0.6884 0.7362 
1.024 0.00 0.00 -0.593 -0.617 0.6877 0.7377 
1.025 0.00 0.00 -0.633 -0.660 0.6085 0.6416 
1.026 0.00 0.00 -0.627 -0.670 0.6205 0.7120 
1.027 0.00 0.00 -0.507 -0.564 0.6023 0.6863 
1.028 0.00 0.00 -0.452 -0.498 0.5911 0.6901 
1.029 0.00 0.00 -0.488 -0.512 0.6105 0.6289 
1.030 0.00 0.00 -0.521 -0.563 0.5480 0.5534 
1.031 0.00 0.00 -0.537 -0.586 0.5050 0.6351 
1.032 0.00 0.00 -0.521 -0.568 0.5099 0.5732 
1.033 0.00 0.00 -0.440 -0.462 0.4838 0.5090 
1.034 0.00 0.00 -0.384 -0.468 0.4327 0.5685 
1.035 0.00 0.00 -0.405 -0.493 0.4525 0.5372 
1.036 0.00 0.00 -0.428 -0.508 0.4683 0.4710 
1.037 0.00 0.00 -0.445 -0.487 0.4213 0.5055 
1.038 0.00 0.00 -0.439 -0.390 0.3767 0.4685 
1.039 0.00 0.00 -0.416 -0.317 0.3772 0.4736 
1.040 0.00 0.00 -0.390 -0.320 0.3809 0.4256 
1.041 0.00 0.00 -0.300 -0.354 0.3560 0.4805 
1.042 0.00 0.00 -0.277 -0.396 0.3560 0.4279 
1.043 0.00 0.00 -0.291 -0.419 0.3393 0.4238 
1.044 0.00 0.00 -0.312 -0.407 0.3256 0.3567 
1.045 0.00 0.00 -0.316 -0.393 0.3469 0.3884 
1.046 0.00 0.00 -0.317 -0.368 0.2928 0.3655 
1.047 0.00 0.00 -0.305 -0.308 0.2928 0.3976 
1.048 0.00 0.00 -0.297 -0.265 0.2761 0.3341 
1.049 0.00 0.00 -0.293 -0.243 0.2501 0.3278 
1.050 0.00 0.00 -0.267 -0.251 0.2501 0.3278 
1.051 0.00 0.00 -0.241 -0.272 0.2064 0.2916 
1.052 0.00 0.00 -0.226 -0.275 0.2064 0.3259 
