%% logfile from robot Freja (4)
% Freja (4)
%  1    time 0.000 sec
%  2  3 Motor voltage [V] left, right: 3.00 3.00
%  4  5 Motor current left, right [A]: 0.141 0.157
%  6  7 Wheel velocity [m/s] left, right: -0.0000 -0.0000
0.000 3.00 3.00 0.006 -0.010 -0.0000 -0.0000 
0.001 3.00 3.00 0.317 -0.004 -0.0000 -0.0000 
0.002 3.00 3.00 0.621 0.261 -0.0000 -0.0000 
0.003 3.00 3.00 0.829 0.552 -0.0000 -0.0000 
0.004 3.00 3.00 1.163 0.728 0.0000 -0.0000 
0.005 3.00 3.00 1.083 0.816 0.0000 -0.0000 
0.006 3.00 3.00 1.050 0.838 0.0000 -0.0000 
0.007 3.00 3.00 1.125 0.825 0.0000 0.0000 
0.008 3.00 3.00 0.910 0.822 0.0945 0.0000 
0.009 3.00 3.00 0.983 0.804 0.0945 0.0000 
0.010 3.00 3.00 1.040 0.785 0.1688 0.0000 
0.011 3.00 3.00 0.846 0.765 0.1688 0.0000 
0.012 3.00 3.00 0.852 0.738 0.2156 0.1922 
0.013 3.00 3.00 0.778 0.695 0.2156 0.1922 
0.014 3.00 3.00 0.719 0.662 0.2511 0.2234 
0.015 3.00 3.00 0.698 0.639 0.2878 0.2547 
0.016 3.00 3.00 0.736 0.639 0.2878 0.2547 
0.017 3.00 3.00 0.680 0.606 0.3219 0.2832 
0.018 3.00 3.00 0.669 0.578 0.3447 0.3066 
0.019 3.00 3.00 0.726 0.516 0.3601 0.3308 
0.020 3.00 3.00 0.649 0.491 0.3762 0.3478 
0.021 3.00 3.00 0.665 0.503 0.3936 0.3601 
0.022 3.00 3.00 0.646 0.507 0.4049 0.3728 
0.023 3.00 3.00 0.657 0.537 0.4164 0.3728 
0.024 3.00 3.00 0.627 0.528 0.4338 0.4130 
0.025 3.00 3.00 0.776 0.486 0.4501 0.4243 
0.026 3.00 3.00 0.677 0.491 0.4461 0.4342 
0.027 3.00 3.00 0.593 0.548 0.4865 0.4545 
0.028 3.00 3.00 0.553 0.516 0.4982 0.4669 
0.029 3.00 3.00 0.566 0.472 0.5010 0.4740 
0.030 3.00 3.00 0.523 0.459 0.5087 0.4806 
0.031 3.00 3.00 0.459 0.423 0.5437 0.5069 
0.032 3.00 3.00 0.584 0.422 0.5424 0.5108 
0.033 3.00 3.00 0.467 0.399 0.5554 0.5103 
0.034 3.00 3.00 0.632 0.412 0.5681 0.5235 
0.035 3.00 3.00 0.669 0.364 0.5677 0.5384 
0.036 3.00 3.00 0.525 0.374 0.5788 0.5418 
0.037 3.00 3.00 0.475 0.353 0.5895 0.5564 
0.038 3.00 3.00 0.644 0.360 0.5955 0.5720 
0.039 3.00 3.00 0.384 0.371 0.6028 0.5757 
0.040 3.00 3.00 0.421 0.392 0.6109 0.5969 
0.041 3.00 3.00 0.413 0.362 0.6156 0.6005 
0.042 3.00 3.00 0.361 0.327 0.6327 0.6144 
0.043 3.00 3.00 0.417 0.319 0.6358 0.6198 
0.044 3.00 3.00 0.387 0.282 0.6477 0.6240 
0.045 3.00 3.00 0.410 0.259 0.6551 0.6269 
0.046 3.00 3.00 0.404 0.272 0.6597 0.6285 
0.047 3.00 3.00 0.326 0.266 0.6697 0.6371 
0.048 3.00 3.00 0.536 0.270 0.6746 0.6446 
0.049 3.00 3.00 0.365 0.256 0.6814 0.6485 
0.050 3.00 3.00 0.349 0.320 0.6940 0.6569 
0.051 3.00 3.00 0.280 0.300 0.6956 0.6657 
0.052 3.00 3.00 0.316 0.263 0.6968 0.6732 
0.053 3.00 3.00 0.363 0.257 0.6990 0.6791 
0.054 3.00 3.00 0.376 0.248 0.7081 0.6835 
0.055 3.00 3.00 0.345 0.213 0.7093 0.6982 
0.056 3.00 3.00 0.311 0.208 0.7170 0.6973 
0.057 3.00 3.00 0.282 0.205 0.7213 0.7040 
0.058 3.00 3.00 0.327 0.226 0.7290 0.7128 
0.059 3.00 3.00 0.329 0.252 0.7328 0.7208 
0.060 3.00 3.00 0.254 0.278 0.7334 0.7234 
0.061 3.00 3.00 0.220 0.251 0.7464 0.7249 
0.062 3.00 3.00 0.304 0.221 0.7447 0.7374 
0.063 3.00 3.00 0.339 0.211 0.7564 0.7322 
0.064 3.00 3.00 0.274 0.198 0.7548 0.7401 
0.065 3.00 3.00 0.318 0.212 0.7657 0.7458 
0.066 3.00 3.00 0.350 0.212 0.7666 0.7486 
0.067 3.00 3.00 0.501 0.190 0.7689 0.7614 
0.068 3.00 3.00 0.236 0.235 0.7729 0.7592 
0.069 3.00 3.00 0.382 0.217 0.7726 0.7577 
0.070 3.00 3.00 0.253 0.192 0.7805 0.7636 
0.071 3.00 3.00 0.289 0.182 0.7851 0.7680 
0.072 3.00 3.00 0.314 0.171 0.7876 0.7691 
0.073 3.00 3.00 0.273 0.184 0.7924 0.7739 
0.074 3.00 3.00 0.224 0.165 0.7894 0.7768 
0.075 3.00 3.00 0.321 0.144 0.7960 0.7809 
0.076 3.00 3.00 0.327 0.160 0.8008 0.7827 
0.077 3.00 3.00 0.257 0.191 0.8021 0.7892 
0.078 3.00 3.00 0.231 0.185 0.8071 0.7856 
0.079 3.00 3.00 0.242 0.156 0.8046 0.7926 
0.080 3.00 3.00 0.190 0.141 0.8103 0.7958 
0.081 3.00 3.00 0.274 0.148 0.8098 0.8075 
0.082 3.00 3.00 0.312 0.152 0.8089 0.8032 
0.083 3.00 3.00 0.250 0.133 0.8111 0.8092 
0.084 3.00 3.00 0.232 0.152 0.8107 0.8108 
0.085 3.00 3.00 0.216 0.185 0.8125 0.8110 
0.086 3.00 3.00 0.151 0.178 0.8171 0.8118 
0.087 3.00 3.00 0.239 0.160 0.8201 0.8151 
0.088 3.00 3.00 0.264 0.148 0.8216 0.8100 
0.089 3.00 3.00 0.410 0.164 0.8230 0.8165 
0.090 3.00 3.00 0.260 0.150 0.8267 0.8203 
0.091 3.00 3.00 0.213 0.126 0.8274 0.8224 
0.092 3.00 3.00 0.188 0.141 0.8272 0.8238 
0.093 3.00 3.00 0.254 0.169 0.8277 0.8282 
0.094 3.00 3.00 0.202 0.141 0.8328 0.8309 
0.095 3.00 3.00 0.315 0.096 0.8351 0.8335 
0.096 3.00 3.00 0.325 0.103 0.8369 0.8334 
0.097 3.00 3.00 0.242 0.120 0.8400 0.8363 
0.098 3.00 3.00 0.238 0.125 0.8374 0.8371 
0.099 3.00 3.00 0.186 0.118 0.8422 0.8391 
0.100 3.00 3.00 0.227 0.145 0.8460 0.8403 
0.101 3.00 3.00 0.200 0.150 0.8494 0.8431 
0.102 3.00 3.00 0.212 0.137 0.8493 0.8445 
0.103 3.00 3.00 0.180 0.107 0.8500 0.8451 
0.104 3.00 3.00 0.212 0.089 0.8510 0.8530 
0.105 3.00 3.00 0.157 0.091 0.8526 0.8524 
0.106 3.00 3.00 0.218 0.104 0.8530 0.8561 
0.107 3.00 3.00 0.233 0.102 0.8560 0.8573 
0.108 3.00 3.00 0.188 0.158 0.8538 0.8587 
0.109 3.00 3.00 0.127 0.146 0.8571 0.8592 
0.110 3.00 3.00 0.155 0.140 0.8578 0.8608 
0.111 3.00 3.00 0.182 0.113 0.8595 0.8599 
0.112 3.00 3.00 0.246 0.099 0.8599 0.8609 
0.113 3.00 3.00 0.351 0.099 0.8616 0.8641 
0.114 3.00 3.00 0.210 0.099 0.8612 0.8663 
0.115 3.00 3.00 0.162 0.113 0.8623 0.8680 
0.116 3.00 3.00 0.168 0.133 0.8620 0.8708 
0.117 3.00 3.00 0.335 0.109 0.8607 0.8721 
0.118 3.00 3.00 0.424 0.080 0.8652 0.8715 
0.119 3.00 3.00 0.280 0.080 0.8674 0.8683 
0.120 3.00 3.00 0.159 0.121 0.8680 0.8670 
0.121 3.00 3.00 0.208 0.091 0.8685 0.8686 
0.122 3.00 3.00 0.263 0.097 0.8708 0.8686 
0.123 3.00 3.00 0.353 0.123 0.8723 0.8709 
0.124 3.00 3.00 0.166 0.117 0.8744 0.8716 
0.125 3.00 3.00 0.083 0.097 0.8712 0.8734 
0.126 3.00 3.00 0.195 0.080 0.8744 0.8764 
0.127 3.00 3.00 0.189 0.096 0.8749 0.8795 
0.128 3.00 3.00 0.216 0.097 0.8743 0.8802 
0.129 3.00 3.00 0.213 0.068 0.8753 0.8812 
0.130 3.00 3.00 0.189 0.115 0.8755 0.8831 
0.131 3.00 3.00 0.114 0.126 0.8760 0.8822 
0.132 3.00 3.00 0.199 0.121 0.8756 0.8829 
0.133 3.00 3.00 0.200 0.101 0.8781 0.8809 
0.134 3.00 3.00 0.174 0.104 0.8759 0.8822 
0.135 3.00 3.00 0.123 0.112 0.8798 0.8848 
0.136 3.00 3.00 0.151 0.077 0.8769 0.8841 
0.137 3.00 3.00 0.192 0.077 0.8775 0.8873 
0.138 3.00 3.00 0.132 0.111 0.8710 0.8886 
0.139 3.00 3.00 0.173 0.098 0.8685 0.8903 
0.140 3.00 3.00 0.224 0.087 0.8703 0.8904 
0.141 3.00 3.00 0.220 0.082 0.8724 0.8892 
0.142 3.00 3.00 0.177 0.104 0.8727 0.8901 
0.143 3.00 3.00 0.128 0.098 0.8721 0.8907 
0.144 3.00 3.00 0.346 0.071 0.8732 0.8898 
0.145 3.00 3.00 0.223 0.099 0.8771 0.8916 
0.146 3.00 3.00 0.122 0.106 0.8785 0.8902 
0.147 3.00 3.00 0.121 0.076 0.8786 0.8929 
0.148 3.00 3.00 0.166 0.065 0.8774 0.8955 
0.149 3.00 3.00 0.165 0.087 0.8781 0.8981 
0.150 3.00 3.00 0.326 0.083 0.8744 0.8951 
0.151 3.00 3.00 0.264 0.066 0.8796 0.8983 
0.152 3.00 3.00 0.389 0.100 0.8802 0.8979 
0.153 3.00 3.00 0.205 0.136 0.8805 0.8962 
0.154 3.00 3.00 0.121 0.114 0.8757 0.8951 
0.155 3.00 3.00 0.151 0.086 0.8823 0.8918 
0.156 3.00 3.00 0.150 0.094 0.8869 0.8924 
0.157 3.00 3.00 0.196 0.083 0.8869 0.8969 
0.158 3.00 3.00 0.135 0.070 0.8863 0.8952 
0.159 3.00 3.00 0.155 0.084 0.8874 0.8968 
0.160 3.00 3.00 0.116 0.122 0.8885 0.8978 
0.161 3.00 3.00 0.087 0.110 0.8857 0.8986 
0.162 3.00 3.00 0.113 0.071 0.8872 0.8974 
0.163 3.00 3.00 0.155 0.083 0.8883 0.8978 
0.164 3.00 3.00 0.336 0.097 0.8901 0.8981 
0.165 3.00 3.00 0.149 0.078 0.8875 0.8985 
0.166 3.00 3.00 0.188 0.060 0.8898 0.8982 
0.167 3.00 3.00 0.361 0.096 0.8919 0.8993 
0.168 3.00 3.00 0.151 0.091 0.8934 0.8995 
0.169 3.00 3.00 0.205 0.076 0.8931 0.8904 
0.170 3.00 3.00 0.158 0.091 0.8910 0.9020 
0.171 3.00 3.00 0.341 0.095 0.8908 0.9015 
0.172 3.00 3.00 0.115 0.080 0.8916 0.9020 
0.173 3.00 3.00 0.180 0.070 0.8919 0.9027 
0.174 3.00 3.00 0.258 0.133 0.8916 0.9023 
0.175 3.00 3.00 0.357 0.118 0.8910 0.9038 
0.176 3.00 3.00 0.255 0.091 0.8932 0.9018 
0.177 3.00 3.00 0.380 0.093 0.8902 0.8997 
0.178 3.00 3.00 0.257 0.099 0.8916 0.9025 
0.179 3.00 3.00 0.199 0.104 0.8924 0.9014 
0.180 3.00 3.00 0.177 0.085 0.8931 0.9018 
0.181 3.00 3.00 0.204 0.105 0.8930 0.9042 
0.182 3.00 3.00 0.034 0.121 0.8930 0.9054 
0.183 3.00 3.00 0.113 0.098 0.8885 0.9055 
0.184 3.00 3.00 0.138 0.084 0.8888 0.9037 
0.185 3.00 3.00 0.150 0.092 0.8887 0.9049 
0.186 3.00 3.00 0.166 0.091 0.8910 0.9040 
0.187 3.00 3.00 0.118 0.078 0.8869 0.9038 
0.188 3.00 3.00 0.131 0.100 0.8884 0.9058 
0.189 3.00 3.00 0.108 0.106 0.8931 0.9008 
0.190 3.00 3.00 0.080 0.076 0.8895 0.9064 
0.191 3.00 3.00 0.093 0.059 0.8891 0.9078 
0.192 3.00 3.00 0.122 0.087 0.8883 0.9101 
0.193 3.00 3.00 0.206 0.088 0.8872 0.9102 
0.194 3.00 3.00 0.207 0.064 0.8875 0.9106 
0.195 3.00 3.00 0.200 0.083 0.8868 0.9096 
0.196 3.00 3.00 0.158 0.127 0.8840 0.9099 
0.197 3.00 3.00 0.148 0.081 0.8875 0.9094 
0.198 3.00 3.00 0.228 0.053 0.8879 0.9070 
0.199 3.00 3.00 0.269 0.057 0.8890 0.9074 
0.200 3.00 3.00 0.191 0.080 0.8878 0.9108 
0.201 3.00 3.00 0.172 0.060 0.8892 0.9088 
0.202 3.00 3.00 0.204 0.083 0.8880 0.9093 
0.203 3.00 3.00 0.371 0.106 0.8886 0.9102 
0.204 3.00 3.00 0.191 0.087 0.8879 0.9103 
0.205 3.00 3.00 0.143 0.076 0.8845 0.9095 
0.206 3.00 3.00 0.151 0.083 0.8893 0.9104 
0.207 3.00 3.00 0.372 0.080 0.8891 0.9076 
0.208 3.00 3.00 0.192 0.061 0.8906 0.9109 
0.209 3.00 3.00 0.182 0.057 0.8907 0.9081 
0.210 3.00 3.00 0.294 0.087 0.8914 0.9112 
0.211 3.00 3.00 0.169 0.087 0.8919 0.9128 
0.212 3.00 3.00 0.118 0.067 0.8935 0.9115 
0.213 3.00 3.00 0.166 0.068 0.8939 0.9140 
0.214 3.00 3.00 0.201 0.095 0.8920 0.9153 
0.215 3.00 3.00 0.172 0.077 0.8930 0.9152 
0.216 3.00 3.00 0.113 0.065 0.8925 0.9175 
0.217 3.00 3.00 0.158 0.101 0.8923 0.9144 
0.218 3.00 3.00 0.144 0.106 0.8935 0.9146 
0.219 3.00 3.00 0.124 0.068 0.8946 0.9112 
0.220 3.00 3.00 0.094 0.078 0.8922 0.9099 
0.221 3.00 3.00 0.146 0.099 0.8938 0.9120 
0.222 3.00 3.00 0.193 0.095 0.8920 0.9118 
0.223 3.00 3.00 0.173 0.081 0.8937 0.9130 
0.224 3.00 3.00 0.154 0.085 0.8942 0.9143 
0.225 3.00 3.00 0.130 0.095 0.8933 0.9150 
0.226 3.00 3.00 0.154 0.059 0.8913 0.9132 
0.227 3.00 3.00 0.171 0.088 0.8911 0.9109 
0.228 3.00 3.00 0.225 0.106 0.8923 0.9133 
0.229 3.00 3.00 0.378 0.087 0.8929 0.9115 
0.230 3.00 3.00 0.207 0.076 0.8926 0.9064 
0.231 3.00 3.00 0.140 0.088 0.8944 0.9068 
0.232 3.00 3.00 0.243 0.084 0.8947 0.9054 
0.233 3.00 3.00 0.193 0.065 0.8957 0.9070 
0.234 3.00 3.00 0.163 0.053 0.8946 0.9089 
0.235 3.00 3.00 0.159 0.077 0.8949 0.9110 
0.236 3.00 3.00 0.172 0.090 0.8959 0.9112 
0.237 3.00 3.00 0.189 0.064 0.8956 0.9111 
0.238 3.00 3.00 0.090 0.110 0.8952 0.9107 
0.239 3.00 3.00 0.156 0.097 0.8955 0.9111 
0.240 3.00 3.00 0.120 0.072 0.8949 0.9100 
0.241 3.00 3.00 0.123 0.068 0.8958 0.9083 
0.242 3.00 3.00 0.218 0.090 0.8944 0.9099 
0.243 3.00 3.00 0.182 0.104 0.8959 0.9090 
0.244 3.00 3.00 0.155 0.063 0.8904 0.9101 
0.245 3.00 3.00 0.160 0.099 0.8885 0.9114 
0.246 3.00 3.00 0.118 0.093 0.8880 0.9060 
0.247 3.00 3.00 0.166 0.057 0.8873 0.9128 
0.248 3.00 3.00 0.125 0.048 0.8856 0.9108 
0.249 3.00 3.00 0.143 0.091 0.8866 0.9122 
0.250 3.00 3.00 0.121 0.080 0.8879 0.9112 
0.251 3.00 3.00 0.129 0.061 0.8897 0.9113 
0.252 3.00 3.00 0.128 0.079 0.8887 0.9122 
0.253 3.00 3.00 0.141 0.083 0.8902 0.9107 
0.254 3.00 3.00 0.356 0.057 0.8905 0.9126 
0.255 3.00 3.00 0.141 0.053 0.8926 0.9154 
0.256 3.00 3.00 0.090 0.081 0.8937 0.9178 
0.257 3.00 3.00 0.225 0.087 0.8909 0.9187 
0.258 3.00 3.00 0.212 0.068 0.8931 0.9178 
0.259 3.00 3.00 0.166 0.080 0.8913 0.9182 
0.260 3.00 3.00 0.150 0.102 0.8919 0.9191 
0.261 3.00 3.00 0.258 0.082 0.8938 0.9198 
0.262 3.00 3.00 0.164 0.076 0.8915 0.9157 
0.263 3.00 3.00 0.103 0.083 0.8937 0.9159 
0.264 3.00 3.00 0.136 0.091 0.8922 0.9193 
0.265 3.00 3.00 0.181 0.072 0.8918 0.9181 
0.266 3.00 3.00 0.337 0.087 0.8930 0.9194 
0.267 3.00 3.00 0.143 0.094 0.8936 0.9197 
0.268 3.00 3.00 0.140 0.072 0.8911 0.9191 
0.269 3.00 3.00 0.125 0.066 0.8929 0.9199 
0.270 3.00 3.00 0.197 0.066 0.8914 0.9195 
0.271 3.00 3.00 0.151 0.073 0.8924 0.9158 
0.272 3.00 3.00 0.138 0.049 0.8927 0.9186 
0.273 3.00 3.00 0.142 0.071 0.8936 0.9179 
0.274 3.00 3.00 0.132 0.093 0.8928 0.9164 
0.275 3.00 3.00 0.104 0.061 0.8946 0.9171 
0.276 3.00 3.00 0.118 0.041 0.8968 0.9203 
0.277 3.00 3.00 0.143 0.080 0.8967 0.9220 
0.278 3.00 3.00 0.140 0.087 0.8970 0.9221 
0.279 3.00 3.00 0.190 0.067 0.8944 0.9217 
0.280 3.00 3.00 0.314 0.083 0.8931 0.9208 
0.281 3.00 3.00 0.188 0.108 0.8974 0.9202 
0.282 3.00 3.00 0.342 0.088 0.8947 0.9194 
0.283 3.00 3.00 0.189 0.061 0.8963 0.9151 
0.284 3.00 3.00 0.161 0.069 0.8937 0.9129 
0.285 3.00 3.00 0.091 0.084 0.8955 0.9155 
0.286 3.00 3.00 0.133 0.067 0.8949 0.9138 
0.287 3.00 3.00 0.232 0.080 0.8952 0.9144 
0.288 3.00 3.00 0.181 0.084 0.8944 0.9134 
0.289 3.00 3.00 0.155 0.049 0.8949 0.9135 
0.290 3.00 3.00 0.193 0.042 0.8943 0.9128 
0.291 3.00 3.00 0.341 0.083 0.8953 0.9126 
0.292 3.00 3.00 0.153 0.103 0.8921 0.9118 
0.293 3.00 3.00 0.163 0.059 0.8905 0.9111 
0.294 3.00 3.00 0.150 0.068 0.8921 0.9067 
0.295 3.00 3.00 0.136 0.087 0.8956 0.9115 
0.296 3.00 3.00 0.152 0.075 0.8928 0.9110 
0.297 3.00 3.00 0.134 0.055 0.8948 0.9107 
0.298 3.00 3.00 0.118 0.070 0.8968 0.9154 
0.299 3.00 3.00 0.060 0.083 0.8960 0.9166 
0.300 3.00 3.00 0.123 0.054 0.8966 0.9160 
0.301 3.00 3.00 0.159 0.060 0.8949 0.9174 
0.302 3.00 3.00 0.137 0.107 0.8953 0.9148 
0.303 3.00 3.00 0.125 0.091 0.8939 0.9152 
0.304 3.00 3.00 0.166 0.067 0.8950 0.9112 
0.305 3.00 3.00 0.146 0.066 0.8948 0.9120 
0.306 3.00 3.00 0.128 0.083 0.8923 0.9139 
0.307 3.00 3.00 0.114 0.076 0.8921 0.9144 
0.308 3.00 3.00 0.155 0.072 0.8926 0.9150 
0.309 3.00 3.00 0.163 0.086 0.8923 0.9148 
0.310 3.00 3.00 0.118 0.064 0.8928 0.9160 
0.311 3.00 3.00 0.247 0.040 0.8920 0.9146 
0.312 3.00 3.00 0.214 0.058 0.8926 0.9152 
0.313 3.00 3.00 0.243 0.092 0.8929 0.9124 
0.314 3.00 3.00 0.110 0.071 0.8923 0.9070 
0.315 3.00 3.00 0.125 0.057 0.8920 0.9157 
0.316 3.00 3.00 0.201 0.078 0.8920 0.9149 
0.317 3.00 3.00 0.182 0.075 0.8932 0.9152 
0.318 3.00 3.00 0.106 0.052 0.8884 0.9169 
0.319 3.00 3.00 0.193 0.061 0.8941 0.9200 
0.320 3.00 3.00 0.201 0.087 0.8954 0.9206 
0.321 3.00 3.00 0.122 0.085 0.8972 0.9205 
0.322 3.00 3.00 0.315 0.069 0.8962 0.9196 
0.323 3.00 3.00 0.207 0.091 0.8953 0.9204 
0.324 3.00 3.00 0.144 0.080 0.8948 0.9199 
0.325 3.00 3.00 0.163 0.064 0.8956 0.9197 
0.326 3.00 3.00 0.192 0.068 0.8948 0.9162 
0.327 3.00 3.00 0.147 0.083 0.8949 0.9182 
0.328 3.00 3.00 0.090 0.070 0.8946 0.9176 
0.329 3.00 3.00 0.238 0.071 0.8959 0.9188 
0.330 3.00 3.00 0.213 0.098 0.8953 0.9187 
0.331 3.00 3.00 0.135 0.076 0.8945 0.9193 
0.332 3.00 3.00 0.125 0.061 0.8924 0.9196 
0.333 3.00 3.00 0.134 0.050 0.8958 0.9178 
0.334 3.00 3.00 0.154 0.071 0.8950 0.9174 
0.335 3.00 3.00 0.106 0.064 0.8928 0.9180 
0.336 3.00 3.00 0.090 0.062 0.8928 0.9148 
0.337 3.00 3.00 0.170 0.087 0.8951 0.9171 
0.338 3.00 3.00 0.185 0.076 0.8947 0.9146 
0.339 3.00 3.00 0.064 0.051 0.8957 0.9142 
0.340 3.00 3.00 0.091 0.058 0.8955 0.9175 
0.341 3.00 3.00 0.169 0.076 0.8962 0.9179 
0.342 3.00 3.00 0.118 0.077 0.8948 0.9188 
0.343 3.00 3.00 0.079 0.064 0.8999 0.9181 
0.344 3.00 3.00 0.125 0.108 0.8980 0.9152 
0.345 3.00 3.00 0.163 0.105 0.8975 0.9164 
0.346 3.00 3.00 0.172 0.085 0.8971 0.9146 
0.347 3.00 3.00 0.166 0.070 0.8970 0.9120 
0.348 3.00 3.00 0.217 0.081 0.8962 0.9131 
0.349 3.00 3.00 0.175 0.073 0.8963 0.9137 
0.350 3.00 3.00 0.304 0.058 0.8970 0.9152 
0.351 3.00 3.00 0.155 0.080 0.8957 0.9155 
0.352 3.00 3.00 0.363 0.089 0.8974 0.9163 
0.353 3.00 3.00 0.259 0.065 0.8964 0.9167 
0.354 3.00 3.00 0.178 0.055 0.8968 0.9146 
0.355 3.00 3.00 0.125 0.091 0.8965 0.9153 
0.356 3.00 3.00 0.216 0.067 0.8960 0.9139 
0.357 3.00 3.00 0.215 0.049 0.8939 0.9143 
0.358 3.00 3.00 0.159 0.087 0.8942 0.9097 
0.359 3.00 3.00 0.349 0.102 0.8956 0.9151 
0.360 3.00 3.00 0.180 0.076 0.8975 0.9148 
0.361 3.00 3.00 0.131 0.045 0.8934 0.9169 
0.362 3.00 3.00 0.153 0.075 0.8970 0.9189 
0.363 3.00 3.00 0.178 0.072 0.8977 0.9188 
0.364 3.00 3.00 0.126 0.048 0.9000 0.9194 
0.365 3.00 3.00 0.194 0.072 0.9005 0.9183 
0.366 3.00 3.00 0.186 0.091 0.8976 0.9192 
0.367 3.00 3.00 0.170 0.069 0.8988 0.9181 
0.368 3.00 3.00 0.107 0.054 0.8999 0.9144 
0.369 3.00 3.00 0.144 0.080 0.8974 0.9152 
0.370 3.00 3.00 0.163 0.074 0.8994 0.9185 
0.371 3.00 3.00 0.131 0.058 0.8965 0.9170 
0.372 3.00 3.00 0.078 0.103 0.8981 0.9169 
0.373 3.00 3.00 0.312 0.101 0.8996 0.9154 
0.374 3.00 3.00 0.201 0.070 0.8981 0.9117 
0.375 3.00 3.00 0.159 0.060 0.8979 0.9157 
0.376 3.00 3.00 0.125 0.072 0.8983 0.9152 
0.377 3.00 3.00 0.184 0.064 0.8969 0.9139 
0.378 3.00 3.00 0.192 0.061 0.8990 0.9094 
0.379 3.00 3.00 0.166 0.081 0.8949 0.9134 
0.380 3.00 3.00 0.161 0.099 0.8967 0.9102 
0.381 3.00 3.00 0.183 0.086 0.8922 0.9153 
0.382 3.00 3.00 0.144 0.064 0.8987 0.9140 
0.383 3.00 3.00 0.102 0.069 0.8960 0.9181 
0.384 3.00 3.00 0.180 0.078 0.8976 0.9178 
0.385 3.00 3.00 0.256 0.079 0.9001 0.9160 
0.386 3.00 3.00 0.167 0.099 0.8963 0.9171 
0.387 3.00 3.00 0.092 0.114 0.9016 0.9166 
0.388 3.00 3.00 0.136 0.105 0.8987 0.9164 
0.389 3.00 3.00 0.134 0.062 0.8985 0.9137 
0.390 3.00 3.00 0.312 0.066 0.9004 0.9138 
0.391 3.00 3.00 0.235 0.075 0.8979 0.9172 
0.392 3.00 3.00 0.203 0.057 0.8983 0.9152 
0.393 3.00 3.00 0.088 0.094 0.8947 0.9159 
0.394 3.00 3.00 0.123 0.105 0.8987 0.9155 
0.395 3.00 3.00 0.132 0.086 0.8945 0.9145 
0.396 3.00 3.00 0.179 0.080 0.8989 0.9158 
0.397 3.00 3.00 0.209 0.084 0.8981 0.9163 
0.398 3.00 3.00 0.136 0.072 0.8976 0.9149 
0.399 3.00 3.00 0.353 0.064 0.8970 0.9160 
0.400 3.00 3.00 0.156 0.077 0.8990 0.9152 
0.401 3.00 3.00 0.226 0.087 0.8945 0.9129 
0.402 3.00 3.00 0.221 0.038 0.8963 0.9155 
0.403 3.00 3.00 0.212 0.028 0.8895 0.9158 
0.404 3.00 3.00 0.148 0.061 0.8895 0.9189 
0.405 3.00 3.00 0.155 0.081 0.8872 0.9195 
0.406 3.00 3.00 0.240 0.070 0.8880 0.9203 
0.407 3.00 3.00 0.243 0.088 0.8910 0.9212 
0.408 3.00 3.00 0.156 0.103 0.8933 0.9146 
0.409 3.00 3.00 0.302 0.096 0.8924 0.9197 
0.410 3.00 3.00 0.237 0.084 0.8917 0.9155 
0.411 3.00 3.00 0.177 0.076 0.8910 0.9151 
0.412 3.00 3.00 0.041 0.068 0.8911 0.9190 
0.413 3.00 3.00 0.144 0.053 0.8915 0.9166 
0.414 3.00 3.00 0.144 0.060 0.8916 0.9179 
0.415 3.00 3.00 0.318 0.102 0.8911 0.9195 
0.416 3.00 3.00 0.146 0.100 0.8924 0.9150 
0.417 3.00 3.00 0.160 0.064 0.8930 0.9175 
0.418 3.00 3.00 0.147 0.088 0.8924 0.9174 
0.419 3.00 3.00 0.112 0.088 0.8927 0.9176 
0.420 3.00 3.00 0.124 0.053 0.8931 0.9169 
0.421 3.00 3.00 0.130 0.062 0.8924 0.9161 
0.422 3.00 3.00 0.109 0.093 0.8924 0.9177 
0.423 3.00 3.00 0.289 0.084 0.8932 0.9154 
0.424 3.00 3.00 0.170 0.057 0.8946 0.9167 
0.425 3.00 3.00 0.140 0.066 0.8956 0.9195 
0.426 3.00 3.00 0.161 0.080 0.8973 0.9202 
0.427 3.00 3.00 0.170 0.049 0.8983 0.9176 
0.428 3.00 3.00 0.196 0.061 0.8982 0.9166 
0.429 3.00 3.00 0.118 0.117 0.8979 0.9140 
0.430 3.00 3.00 0.121 0.128 0.8984 0.9147 
0.431 3.00 3.00 0.140 0.084 0.8977 0.9140 
0.432 3.00 3.00 0.349 0.067 0.8950 0.9131 
0.433 3.00 3.00 0.182 0.079 0.8994 0.9124 
0.434 3.00 3.00 0.108 0.059 0.8986 0.9151 
0.435 3.00 3.00 0.130 0.055 0.8956 0.9144 
0.436 3.00 3.00 0.106 0.104 0.8981 0.9138 
0.437 3.00 3.00 0.290 0.096 0.8961 0.9151 
0.438 3.00 3.00 0.125 0.068 0.8973 0.9140 
0.439 3.00 3.00 0.201 0.065 0.8985 0.9132 
0.440 3.00 3.00 0.137 0.092 0.8979 0.9136 
0.441 3.00 3.00 0.300 0.069 0.8964 0.9138 
0.442 3.00 3.00 0.219 0.053 0.8970 0.9129 
0.443 3.00 3.00 0.132 0.084 0.8965 0.9147 
0.444 3.00 3.00 0.177 0.085 0.8953 0.9134 
0.445 3.00 3.00 0.096 0.057 0.8940 0.9102 
0.446 3.00 3.00 0.049 0.065 0.8966 0.9180 
0.447 3.00 3.00 0.113 0.086 0.8961 0.9190 
0.448 3.00 3.00 0.186 0.064 0.8931 0.9183 
0.449 3.00 3.00 0.199 0.056 0.8940 0.9180 
0.450 3.00 3.00 0.208 0.120 0.8959 0.9171 
0.451 3.00 3.00 0.165 0.122 0.8967 0.9175 
0.452 3.00 3.00 0.136 0.083 0.8974 0.9165 
0.453 3.00 3.00 0.139 0.072 0.8934 0.9141 
0.454 3.00 3.00 0.182 0.096 0.8928 0.9163 
0.455 3.00 3.00 0.182 0.082 0.8919 0.9168 
0.456 3.00 3.00 0.128 0.058 0.8321 0.9163 
0.457 3.00 3.00 0.201 0.097 0.8928 0.9185 
0.458 3.00 3.00 0.151 0.098 0.8899 0.9196 
0.459 3.00 3.00 0.152 0.058 0.8906 0.9196 
0.460 3.00 3.00 0.127 0.052 0.8903 0.9181 
0.461 3.00 3.00 0.112 0.085 0.8916 0.9185 
0.462 3.00 3.00 0.124 0.075 0.8912 0.9180 
0.463 3.00 3.00 0.148 0.055 0.8915 0.9175 
0.464 3.00 3.00 0.106 0.072 0.8916 0.9091 
0.465 3.00 3.00 0.205 0.084 0.8887 0.9174 
0.466 3.00 3.00 0.103 0.055 0.8878 0.9168 
0.467 3.00 3.00 0.282 0.061 0.8917 0.9206 
0.468 3.00 3.00 0.118 0.095 0.8920 0.9224 
0.469 3.00 3.00 0.168 0.080 0.8929 0.9224 
0.470 3.00 3.00 0.155 0.064 0.8918 0.9222 
0.471 3.00 3.00 0.140 0.085 0.8938 0.9211 
0.472 3.00 3.00 0.121 0.095 0.8959 0.9202 
0.473 3.00 3.00 0.191 0.064 0.8953 0.9212 
0.474 3.00 3.00 0.109 0.065 0.8967 0.9168 
0.475 3.00 3.00 0.125 0.084 0.8940 0.9178 
0.476 3.00 3.00 0.186 0.074 0.8947 0.9192 
0.477 3.00 3.00 0.120 0.053 0.8964 0.9199 
0.478 3.00 3.00 0.163 0.087 0.8942 0.9192 
0.479 3.00 3.00 0.129 0.099 0.8962 0.9206 
0.480 3.00 3.00 0.190 0.066 0.8934 0.9205 
0.481 3.00 3.00 0.091 0.049 0.8949 0.9185 
0.482 3.00 3.00 0.171 0.081 0.8953 0.9196 
0.483 3.00 3.00 0.216 0.087 0.8966 0.9179 
0.484 3.00 3.00 0.132 0.064 0.8952 0.9181 
0.485 3.00 3.00 0.149 0.085 0.8890 0.9182 
0.486 3.00 3.00 0.199 0.084 0.8838 0.9191 
0.487 3.00 3.00 0.198 0.066 0.8959 0.9182 
0.488 3.00 3.00 0.184 0.061 0.8925 0.9207 
0.489 3.00 3.00 0.132 0.072 0.8939 0.9225 
0.490 3.00 3.00 0.080 0.074 0.8946 0.9221 
0.491 3.00 3.00 0.155 0.065 0.8964 0.9222 
0.492 3.00 3.00 0.256 0.099 0.8943 0.9207 
0.493 3.00 3.00 0.208 0.107 0.8950 0.9194 
0.494 3.00 3.00 0.201 0.076 0.8984 0.9164 
0.495 3.00 3.00 0.321 0.058 0.8947 0.9135 
0.496 3.00 3.00 0.142 0.083 0.8995 0.9133 
0.497 3.00 3.00 0.189 0.091 0.8964 0.9153 
0.498 3.00 3.00 0.139 0.075 0.8978 0.9143 
0.499 3.00 3.00 0.298 0.091 0.9002 0.9149 
0.500 3.00 3.00 0.169 0.093 0.8967 0.9151 
0.501 4.00 4.00 0.258 0.074 0.8947 0.9152 
0.502 4.00 4.00 0.183 0.076 0.8962 0.9149 
0.503 4.00 4.00 0.155 0.178 0.9001 0.9176 
0.504 4.00 4.00 0.297 0.251 0.9056 0.9215 
0.505 4.00 4.00 0.328 0.284 0.9132 0.9329 
0.506 4.00 4.00 0.292 0.333 0.9227 0.9387 
0.507 4.00 4.00 0.237 0.297 0.9306 0.9432 
0.508 4.00 4.00 0.301 0.286 0.9335 0.9559 
0.509 4.00 4.00 0.255 0.291 0.9404 0.9647 
0.510 4.00 4.00 0.260 0.270 0.9485 0.9718 
0.511 4.00 4.00 0.395 0.236 0.9533 0.9796 
0.512 4.00 4.00 0.306 0.264 0.9677 0.9850 
0.513 4.00 4.00 0.276 0.291 0.9712 0.9851 
0.514 4.00 4.00 0.281 0.257 0.9732 0.9906 
0.515 4.00 4.00 0.288 0.262 0.9801 0.9963 
0.516 4.00 4.00 0.311 0.262 0.9861 0.9991 
0.517 4.00 4.00 0.399 0.250 0.9965 1.0124 
0.518 4.00 4.00 0.301 0.247 0.9987 1.0143 
0.519 4.00 4.00 0.256 0.265 1.0082 1.0240 
0.520 4.00 4.00 0.216 0.265 1.0128 1.0282 
0.521 4.00 4.00 0.233 0.216 1.0203 1.0342 
0.522 4.00 4.00 0.181 0.215 1.0209 1.0372 
0.523 4.00 4.00 0.163 0.216 1.0313 1.0410 
0.524 4.00 4.00 0.115 0.224 1.0368 1.0425 
0.525 4.00 4.00 0.183 0.228 1.0431 1.0493 
0.526 4.00 4.00 0.185 0.205 1.0479 1.0543 
0.527 4.00 4.00 0.237 0.188 1.0522 1.0557 
0.528 4.00 4.00 0.247 0.179 1.0593 1.0672 
0.529 4.00 4.00 0.198 0.184 1.0572 1.0750 
0.530 4.00 4.00 0.195 0.197 1.0659 1.0750 
0.531 4.00 4.00 0.215 0.217 1.0750 1.0842 
0.532 4.00 4.00 0.225 0.233 1.0734 1.0870 
0.533 4.00 4.00 0.201 0.192 1.0799 1.0872 
0.534 4.00 4.00 0.334 0.186 1.0866 1.0883 
0.535 4.00 4.00 0.170 0.190 1.0901 1.0969 
0.536 4.00 4.00 0.155 0.182 1.0938 1.0987 
0.537 4.00 4.00 0.189 0.194 1.0999 1.1032 
0.538 4.00 4.00 0.150 0.205 1.1002 1.1071 
0.539 4.00 4.00 0.174 0.183 1.1042 1.1096 
0.540 4.00 4.00 0.153 0.185 1.1050 1.1095 
0.541 4.00 4.00 0.115 0.170 1.1057 1.1114 
0.542 4.00 4.00 0.172 0.156 1.1104 1.1115 
0.543 4.00 4.00 0.323 0.175 1.1140 1.1137 
0.544 4.00 4.00 0.168 0.186 1.1139 1.1151 
0.545 4.00 4.00 0.176 0.153 1.1118 1.1205 
0.546 4.00 4.00 0.061 0.149 1.1164 1.1288 
0.547 4.00 4.00 0.097 0.173 1.1150 1.1340 
0.548 4.00 4.00 0.134 0.151 1.1178 1.1374 
0.549 4.00 4.00 0.125 0.160 1.1211 1.1304 
0.550 4.00 4.00 0.182 0.169 1.1252 1.1410 
0.551 4.00 4.00 0.223 0.152 1.1289 1.1400 
0.552 4.00 4.00 0.150 0.148 1.1362 1.1421 
0.553 4.00 4.00 0.200 0.148 1.1420 1.1422 
0.554 4.00 4.00 0.181 0.130 1.1390 1.1496 
0.555 4.00 4.00 0.281 0.156 1.1423 1.1503 
0.556 4.00 4.00 0.165 0.137 1.1444 1.1513 
0.557 4.00 4.00 0.133 0.133 1.1437 1.1565 
0.558 4.00 4.00 0.237 0.153 1.1454 1.1589 
0.559 4.00 4.00 0.127 0.148 1.1468 1.1574 
0.560 4.00 4.00 0.275 0.161 1.1548 1.1595 
0.561 4.00 4.00 0.275 0.158 1.1506 1.1651 
0.562 4.00 4.00 0.170 0.107 1.1556 1.1692 
0.563 4.00 4.00 0.274 0.113 1.1604 1.1700 
0.564 4.00 4.00 0.261 0.141 1.1567 1.1756 
0.565 4.00 4.00 0.161 0.111 1.1572 1.1801 
0.566 4.00 4.00 0.194 0.144 1.1656 1.1748 
0.567 4.00 4.00 0.109 0.149 1.1664 1.1746 
0.568 4.00 4.00 0.121 0.129 1.1648 1.1712 
0.569 4.00 4.00 0.100 0.141 1.1711 1.1754 
0.570 4.00 4.00 0.110 0.137 1.1748 1.1738 
0.571 4.00 4.00 0.281 0.142 1.1718 1.1751 
0.572 4.00 4.00 0.127 0.144 1.1740 1.1820 
0.573 4.00 4.00 0.109 0.125 1.1758 1.1762 
0.574 4.00 4.00 0.165 0.133 1.1721 1.1798 
0.575 4.00 4.00 0.004 0.122 1.1786 1.1780 
0.576 4.00 4.00 0.062 0.099 1.1748 1.1867 
0.577 4.00 4.00 0.090 0.146 1.1809 1.1848 
0.578 4.00 4.00 0.056 0.106 1.1819 1.1833 
0.579 4.00 4.00 0.248 0.076 1.1772 1.1919 
0.580 4.00 4.00 0.091 0.101 1.1788 1.1987 
0.581 4.00 4.00 0.070 0.103 1.1814 1.1958 
0.582 4.00 4.00 0.108 0.124 1.1794 1.1926 
0.583 4.00 4.00 0.249 0.151 1.1816 1.1960 
0.584 4.00 4.00 0.161 0.102 1.1850 1.1938 
0.585 4.00 4.00 0.128 0.115 1.1879 1.1893 
0.586 4.00 4.00 0.113 0.126 1.1843 1.1917 
0.587 4.00 4.00 0.112 0.099 1.1883 1.2002 
0.588 4.00 4.00 0.110 0.118 1.1887 1.2021 
0.589 4.00 4.00 0.067 0.099 1.1856 1.1993 
0.590 4.00 4.00 0.069 0.100 1.1870 1.1971 
0.591 4.00 4.00 0.057 0.118 1.1894 1.2012 
0.592 4.00 4.00 0.070 0.099 1.1922 1.2036 
0.593 4.00 4.00 0.126 0.131 1.1875 1.2032 
0.594 4.00 4.00 0.092 0.117 1.1891 1.1998 
0.595 4.00 4.00 0.105 0.102 1.1916 1.2074 
0.596 4.00 4.00 0.102 0.104 1.1966 1.2143 
0.597 4.00 4.00 0.057 0.102 1.1901 1.2101 
0.598 4.00 4.00 0.090 0.114 1.1904 1.2085 
0.599 4.00 4.00 0.075 0.153 1.1979 1.2132 
0.600 4.00 4.00 0.071 0.114 1.1977 1.2105 
0.601 4.00 4.00 0.236 0.091 1.1942 1.2039 
0.602 4.00 4.00 0.094 0.103 1.1909 1.2053 
0.603 4.00 4.00 0.063 0.091 1.2032 1.2144 
0.604 4.00 4.00 0.110 0.118 1.1994 1.2124 
0.605 4.00 4.00 0.212 0.096 1.2000 1.2110 
0.606 4.00 4.00 0.277 0.083 1.2021 1.2158 
0.607 4.00 4.00 0.129 0.117 1.1977 1.2126 
0.608 4.00 4.00 0.069 0.061 1.1999 1.2181 
0.609 4.00 4.00 0.261 0.098 1.1977 1.2142 
0.610 4.00 4.00 0.101 0.094 1.2015 1.2103 
0.611 4.00 4.00 0.098 0.058 1.2048 1.2192 
0.612 4.00 4.00 0.097 0.078 1.2001 1.2244 
0.613 4.00 4.00 0.056 0.094 1.1979 1.2220 
0.614 4.00 4.00 0.233 0.099 1.2009 1.2185 
0.615 4.00 4.00 0.197 0.122 1.2068 1.2217 
0.616 4.00 4.00 0.096 0.082 1.2003 1.2259 
0.617 4.00 4.00 0.126 0.082 1.2056 1.2150 
0.618 4.00 4.00 0.087 0.103 1.2079 1.2176 
0.619 4.00 4.00 0.044 0.096 1.2113 1.2238 
0.620 4.00 4.00 0.066 0.106 1.2032 1.2258 
0.621 4.00 4.00 0.078 0.083 1.2051 1.2246 
0.622 4.00 4.00 0.103 0.051 1.2059 1.2169 
0.623 4.00 4.00 0.096 0.098 1.2067 1.2242 
0.624 4.00 4.00 0.030 0.053 1.2049 1.2277 
0.625 4.00 4.00 0.061 0.099 1.2039 1.2254 
0.626 4.00 4.00 0.063 0.105 1.2095 1.2224 
0.627 4.00 4.00 0.152 0.073 1.2078 1.2303 
0.628 4.00 4.00 0.108 0.099 1.2057 1.2354 
0.629 4.00 4.00 0.060 0.086 1.2055 1.2314 
0.630 4.00 4.00 -0.011 0.095 1.2086 1.2284 
0.631 4.00 4.00 0.220 0.114 1.2054 1.2322 
0.632 4.00 4.00 0.118 0.091 1.2015 1.2301 
0.633 4.00 4.00 0.103 0.078 1.1978 1.2256 
0.634 4.00 4.00 0.079 0.087 1.2089 1.2253 
0.635 4.00 4.00 0.043 0.085 1.2029 1.2324 
0.636 4.00 4.00 0.056 0.123 1.2040 1.2344 
0.637 4.00 4.00 0.073 0.085 1.2097 1.2319 
0.638 4.00 4.00 0.077 0.067 1.2091 1.2284 
0.639 4.00 4.00 0.089 0.099 1.2058 1.2310 
0.640 4.00 4.00 0.033 0.078 1.2053 1.2296 
0.641 4.00 4.00 0.071 0.100 1.2109 1.2355 
0.642 4.00 4.00 0.077 0.086 1.2115 1.2304 
0.643 4.00 4.00 0.058 0.072 1.2061 1.2340 
0.644 4.00 4.00 0.067 0.088 1.2059 1.2390 
0.645 4.00 4.00 0.047 0.097 1.2091 1.2435 
0.646 4.00 4.00 0.060 0.118 1.2099 1.2351 
0.647 4.00 4.00 0.087 0.102 1.2085 1.2344 
0.648 4.00 4.00 0.097 0.091 1.2067 1.2334 
0.649 4.00 4.00 0.096 0.108 1.2112 1.2380 
0.650 4.00 4.00 0.043 0.087 1.2154 1.2322 
0.651 4.00 4.00 -0.001 0.087 1.2160 1.2347 
0.652 4.00 4.00 0.105 0.096 1.2110 1.2407 
0.653 4.00 4.00 0.118 0.066 1.2171 1.2386 
0.654 4.00 4.00 0.051 0.083 1.2170 1.2329 
0.655 4.00 4.00 0.096 0.090 1.2137 1.2259 
0.656 4.00 4.00 0.066 0.076 1.2133 1.2359 
0.657 4.00 4.00 0.059 0.109 1.2185 1.2330 
0.658 4.00 4.00 0.071 0.095 1.2201 1.2422 
0.659 4.00 4.00 0.087 0.075 1.2156 1.2397 
0.660 4.00 4.00 0.094 0.083 1.2135 1.2422 
0.661 4.00 4.00 0.083 0.087 1.2151 1.2441 
0.662 4.00 4.00 0.112 0.125 1.2174 1.2454 
0.663 4.00 4.00 0.094 0.118 1.2122 1.2379 
0.664 4.00 4.00 0.066 0.091 1.2136 1.2301 
0.665 4.00 4.00 0.060 0.086 1.2179 1.2423 
0.666 4.00 4.00 0.079 0.079 1.2223 1.2403 
0.667 4.00 4.00 0.039 0.114 1.2220 1.2369 
0.668 4.00 4.00 0.113 0.116 1.2170 1.2349 
0.669 4.00 4.00 0.079 0.069 1.2226 1.2391 
0.670 4.00 4.00 0.075 0.090 1.2181 1.2381 
0.671 4.00 4.00 0.056 0.088 1.2183 1.2288 
0.672 4.00 4.00 0.101 0.118 1.2174 1.2360 
0.673 4.00 4.00 0.052 0.114 1.2232 1.2409 
0.674 4.00 4.00 0.090 0.072 1.2233 1.2398 
0.675 4.00 4.00 0.197 0.073 1.2193 1.2440 
0.676 4.00 4.00 0.079 0.074 1.2168 1.2368 
0.677 4.00 4.00 0.045 0.127 1.2172 1.2404 
0.678 4.00 4.00 0.029 0.109 1.2220 1.2441 
0.679 4.00 4.00 0.095 0.074 1.2180 1.2414 
0.680 4.00 4.00 0.087 0.073 1.2161 1.2367 
0.681 4.00 4.00 0.078 0.079 1.2207 1.2363 
0.682 4.00 4.00 0.119 0.082 1.2247 1.2435 
0.683 4.00 4.00 0.028 0.101 1.2214 1.2445 
0.684 4.00 4.00 0.083 0.090 1.2155 1.2413 
0.685 4.00 4.00 0.173 0.072 1.2179 1.2376 
0.686 4.00 4.00 0.071 0.092 1.2189 1.2421 
0.687 4.00 4.00 0.064 0.067 1.2148 1.2403 
0.688 4.00 4.00 0.034 0.090 1.2132 1.2457 
0.689 4.00 4.00 0.056 0.083 1.2204 1.2397 
0.690 4.00 4.00 0.117 0.068 1.2201 1.2389 
0.691 4.00 4.00 0.205 0.085 1.2151 1.2494 
0.692 4.00 4.00 0.128 0.067 1.2131 1.2467 
0.693 4.00 4.00 0.226 0.076 1.2146 1.2432 
0.694 4.00 4.00 0.237 0.104 1.2172 1.2415 
0.695 4.00 4.00 0.180 0.092 1.2142 1.2418 
0.696 4.00 4.00 0.067 0.078 1.2088 1.2442 
0.697 4.00 4.00 0.211 0.068 1.2180 1.2375 
0.698 4.00 4.00 0.106 0.095 1.2244 1.2352 
0.699 4.00 4.00 0.087 0.094 1.2220 1.2421 
0.700 4.00 4.00 0.085 0.087 1.2176 1.2404 
0.701 4.00 4.00 0.087 0.086 1.2215 1.2362 
0.702 4.00 4.00 0.094 0.087 1.2221 1.2331 
0.703 4.00 4.00 0.076 0.081 1.2191 1.2326 
0.704 4.00 4.00 0.045 0.094 1.2170 1.2441 
0.705 4.00 4.00 0.057 0.071 1.2200 1.2423 
0.706 4.00 4.00 0.106 0.062 1.2230 1.2430 
0.707 4.00 4.00 0.065 0.088 1.2169 1.2415 
0.708 4.00 4.00 0.074 0.082 1.2168 1.2467 
0.709 4.00 4.00 0.130 0.104 1.2177 1.2448 
0.710 4.00 4.00 0.143 0.080 1.2193 1.2394 
0.711 4.00 4.00 0.100 0.060 1.2178 1.2326 
0.712 4.00 4.00 0.081 0.071 1.2151 1.2435 
0.713 4.00 4.00 0.052 0.075 1.2194 1.2435 
0.714 4.00 4.00 0.084 0.090 1.2241 1.2401 
0.715 4.00 4.00 0.009 0.089 1.2228 1.2381 
0.716 4.00 4.00 0.061 0.073 1.2182 1.2450 
0.717 4.00 4.00 0.201 0.097 1.2241 1.2409 
0.718 4.00 4.00 0.052 0.077 1.2244 1.2397 
0.719 4.00 4.00 0.133 0.083 1.2191 1.2453 
0.720 4.00 4.00 0.071 0.087 1.2193 1.2319 
0.721 4.00 4.00 0.062 0.068 1.2233 1.2465 
0.722 4.00 4.00 -0.001 0.095 1.2246 1.2520 
0.723 4.00 4.00 0.151 0.085 1.2202 1.2470 
0.724 4.00 4.00 0.239 0.087 1.2181 1.2426 
0.725 4.00 4.00 0.196 0.110 1.2200 1.2468 
0.726 4.00 4.00 0.074 0.091 1.2201 1.2439 
0.727 4.00 4.00 0.091 0.102 1.2220 1.2392 
0.728 4.00 4.00 0.051 0.083 1.2180 1.2388 
0.729 4.00 4.00 0.056 0.059 1.2223 1.2467 
0.730 4.00 4.00 0.029 0.088 1.2264 1.2498 
0.731 4.00 4.00 0.019 0.074 1.2240 1.2469 
0.732 4.00 4.00 0.051 0.065 1.2201 1.2424 
0.733 4.00 4.00 0.037 0.090 1.2259 1.2382 
0.734 4.00 4.00 0.094 0.076 1.2265 1.2438 
0.735 4.00 4.00 0.207 0.106 1.2210 1.2484 
0.736 4.00 4.00 0.061 0.088 1.2201 1.2408 
0.737 4.00 4.00 0.077 0.064 1.2244 1.2452 
0.738 4.00 4.00 0.059 0.076 1.2255 1.2522 
0.739 4.00 4.00 0.079 0.064 1.2217 1.2538 
0.740 4.00 4.00 0.077 0.103 1.2191 1.2449 
0.741 4.00 4.00 0.044 0.108 1.2209 1.2428 
0.742 4.00 4.00 0.045 0.097 1.2246 1.2445 
0.743 4.00 4.00 0.087 0.108 1.2210 1.2434 
0.744 4.00 4.00 0.038 0.081 1.2184 1.2470 
0.745 4.00 4.00 0.076 0.083 1.2229 1.2431 
0.746 4.00 4.00 0.072 0.087 1.2283 1.2385 
0.747 4.00 4.00 0.002 0.075 1.2245 1.2449 
0.748 4.00 4.00 0.055 0.108 1.2209 1.2435 
0.749 4.00 4.00 0.064 0.076 1.2271 1.2370 
0.750 4.00 4.00 0.078 0.069 1.2272 1.2390 
0.751 4.00 4.00 0.064 0.087 1.2219 1.2439 
0.752 4.00 4.00 0.051 0.063 1.2208 1.2453 
0.753 4.00 4.00 0.079 0.080 1.2261 1.2458 
0.754 4.00 4.00 0.070 0.085 1.2262 1.2445 
0.755 4.00 4.00 0.190 0.085 1.2225 1.2502 
0.756 4.00 4.00 0.092 0.135 1.2180 1.2393 
0.757 4.00 4.00 0.070 0.109 1.2201 1.2428 
0.758 4.00 4.00 0.034 0.079 1.2217 1.2383 
0.759 4.00 4.00 0.080 0.075 1.2182 1.2370 
0.760 4.00 4.00 0.046 0.076 1.2169 1.2442 
0.761 4.00 4.00 0.093 0.101 1.2138 1.2459 
0.762 4.00 4.00 0.092 0.054 1.2194 1.2439 
0.763 4.00 4.00 0.197 0.072 1.2179 1.2390 
0.764 4.00 4.00 0.121 0.105 1.2129 1.2418 
0.765 4.00 4.00 0.086 0.100 1.2192 1.2437 
0.766 4.00 4.00 0.115 0.095 1.2196 1.2432 
0.767 4.00 4.00 0.066 0.076 1.2133 1.2389 
0.768 4.00 4.00 0.053 0.067 1.2143 1.2472 
0.769 4.00 4.00 0.058 0.093 1.2204 1.2526 
0.770 4.00 4.00 0.056 0.067 1.2190 1.2513 
0.771 4.00 4.00 0.031 0.079 1.2177 1.2433 
0.772 4.00 4.00 0.078 0.104 1.2143 1.2414 
0.773 4.00 4.00 0.045 0.094 1.2153 1.2410 
0.774 4.00 4.00 0.065 0.083 1.2176 1.2450 
0.775 4.00 4.00 0.105 0.057 1.2150 1.2405 
0.776 4.00 4.00 0.224 0.068 1.2136 1.2407 
0.777 4.00 4.00 0.147 0.092 1.2180 1.2480 
0.778 4.00 4.00 0.066 0.068 1.2230 1.2453 
0.779 4.00 4.00 0.048 0.087 1.2214 1.2400 
0.780 4.00 4.00 0.074 0.095 1.2167 1.2359 
0.781 4.00 4.00 0.035 0.081 1.2239 1.2434 
0.782 4.00 4.00 0.078 0.108 1.2249 1.2455 
0.783 4.00 4.00 0.123 0.082 1.2207 1.2347 
0.784 4.00 4.00 0.064 0.069 1.2203 1.2340 
0.785 4.00 4.00 0.113 0.073 1.2266 1.2442 
0.786 4.00 4.00 0.060 0.082 1.2259 1.2477 
0.787 4.00 4.00 0.060 0.105 1.2215 1.2482 
0.788 4.00 4.00 0.065 0.057 1.2208 1.2411 
0.789 4.00 4.00 0.093 0.074 1.2218 1.2355 
0.790 4.00 4.00 0.196 0.090 1.2245 1.2459 
0.791 4.00 4.00 0.111 0.065 1.2159 1.2438 
0.792 4.00 4.00 0.080 0.092 1.2199 1.2410 
0.793 4.00 4.00 0.090 0.084 1.2244 1.2396 
0.794 4.00 4.00 0.041 0.071 1.2289 1.2432 
0.795 4.00 4.00 0.003 0.108 1.2266 1.2433 
0.796 4.00 4.00 0.083 0.095 1.2240 1.2377 
0.797 4.00 4.00 0.083 0.077 1.2279 1.2409 
0.798 4.00 4.00 0.062 0.064 1.2277 1.2366 
0.799 4.00 4.00 0.065 0.056 1.2228 1.2410 
0.800 4.00 4.00 0.007 0.068 1.2216 1.2474 
0.801 4.00 4.00 0.064 0.075 1.2201 1.2458 
0.802 4.00 4.00 0.208 0.066 1.2267 1.2402 
0.803 4.00 4.00 0.220 0.112 1.2239 1.2453 
0.804 4.00 4.00 0.112 0.096 1.2204 1.2420 
0.805 4.00 4.00 0.045 0.088 1.2225 1.2371 
0.806 4.00 4.00 0.045 0.088 1.2251 1.2367 
0.807 4.00 4.00 0.085 0.086 1.2232 1.2424 
0.808 4.00 4.00 0.063 0.080 1.2162 1.2443 
0.809 4.00 4.00 0.091 0.047 1.2169 1.2393 
0.810 4.00 4.00 0.131 0.076 1.2282 1.2385 
0.811 4.00 4.00 0.120 0.090 1.2241 1.2369 
0.812 4.00 4.00 0.107 0.063 1.2180 1.2444 
0.813 4.00 4.00 0.050 0.064 1.2198 1.2435 
0.814 4.00 4.00 0.029 0.036 1.2199 1.2359 
0.815 4.00 4.00 0.127 0.050 1.2137 1.2386 
0.816 4.00 4.00 0.080 0.074 1.2200 1.2448 
0.817 4.00 4.00 0.106 0.065 1.2003 1.2471 
0.818 4.00 4.00 0.125 0.098 1.2200 1.2382 
0.819 4.00 4.00 0.088 0.110 1.2201 1.2354 
0.820 4.00 4.00 0.095 0.072 1.2146 1.2384 
0.821 4.00 4.00 0.081 0.072 1.2163 1.2408 
0.822 4.00 4.00 0.109 0.045 1.2189 1.2366 
0.823 4.00 4.00 0.098 0.068 1.2117 1.2381 
0.824 4.00 4.00 0.095 0.051 1.2150 1.2462 
0.825 4.00 4.00 0.123 0.000 1.2193 1.2422 
0.826 4.00 4.00 0.121 0.034 1.2230 1.2399 
0.827 4.00 4.00 0.065 0.037 1.2211 1.2353 
0.828 4.00 4.00 0.092 0.045 1.2157 1.2354 
0.829 4.00 4.00 0.098 0.023 1.2191 1.2404 
0.830 4.00 4.00 0.113 -0.033 1.2229 1.2406 
0.831 4.00 4.00 0.076 -0.005 1.2189 1.2399 
0.832 4.00 4.00 0.032 0.026 1.2193 1.2381 
0.833 4.00 4.00 0.075 0.058 1.1910 1.2434 
0.834 4.00 4.00 0.072 0.114 1.2223 1.2428 
0.835 4.00 4.00 0.216 0.101 1.2172 1.2349 
0.836 4.00 4.00 0.144 0.076 1.2189 1.2296 
0.837 4.00 4.00 0.023 0.094 1.1916 1.2391 
0.838 4.00 4.00 0.041 0.090 1.2200 1.2388 
0.839 4.00 4.00 0.094 0.094 1.2237 1.2366 
0.840 4.00 4.00 0.050 0.076 1.2170 1.2348 
0.841 4.00 4.00 0.107 0.063 1.1751 1.2375 
0.842 4.00 4.00 0.097 0.092 1.2257 1.2386 
0.843 4.00 4.00 0.029 0.086 1.2323 1.2312 
0.844 4.00 4.00 0.052 0.092 1.2227 1.2267 
0.845 4.00 4.00 0.029 0.060 1.2236 1.2301 
0.846 4.00 4.00 0.055 0.025 1.2254 1.2325 
0.847 4.00 4.00 0.132 0.060 1.2258 1.2458 
0.848 4.00 4.00 0.054 0.076 1.2211 1.2350 
0.849 4.00 4.00 0.073 0.077 1.2219 1.2332 
0.850 4.00 4.00 0.045 0.118 1.2255 1.2364 
0.851 4.00 4.00 0.039 0.091 1.2255 1.2317 
0.852 4.00 4.00 0.242 0.070 1.2145 1.2281 
0.853 4.00 4.00 0.138 0.098 1.2190 1.2264 
0.854 4.00 4.00 0.065 0.087 1.2235 1.2340 
0.855 4.00 4.00 0.136 0.114 1.2262 1.2361 
0.856 4.00 4.00 0.083 0.085 1.2202 1.2326 
0.857 4.00 4.00 0.231 0.065 1.2218 1.2298 
0.858 4.00 4.00 0.135 0.102 1.2271 1.2328 
0.859 4.00 4.00 0.034 0.097 1.2312 1.2341 
0.860 4.00 4.00 0.045 0.106 1.2235 1.2326 
0.861 4.00 4.00 0.091 0.068 1.2237 1.2284 
0.862 4.00 4.00 0.065 0.043 1.2274 1.2372 
0.863 4.00 4.00 0.071 0.083 1.2258 1.2267 
0.864 4.00 4.00 0.025 0.089 1.2243 1.2412 
0.865 4.00 4.00 0.056 0.097 1.2224 1.2347 
0.866 4.00 4.00 0.066 0.104 1.2273 1.2272 
0.867 4.00 4.00 0.053 0.075 1.2260 1.2317 
0.868 4.00 4.00 0.079 0.091 1.2230 1.2362 
0.869 4.00 4.00 0.041 0.099 1.2186 1.2309 
0.870 4.00 4.00 0.201 0.087 1.2254 1.2310 
0.871 4.00 4.00 0.250 0.106 1.2267 1.2395 
0.872 4.00 4.00 0.087 0.091 1.2202 1.2361 
0.873 4.00 4.00 0.124 0.081 1.2195 1.2320 
0.874 4.00 4.00 0.072 0.082 1.2276 1.2262 
0.875 4.00 4.00 0.063 0.072 1.2303 1.2309 
0.876 4.00 4.00 0.217 0.103 1.2247 1.2312 
0.877 4.00 4.00 0.109 0.047 1.2259 1.2263 
0.878 4.00 4.00 0.087 0.039 1.2262 1.2293 
0.879 4.00 4.00 0.100 0.085 1.2271 1.2372 
0.880 4.00 4.00 0.037 0.074 1.2232 1.2388 
0.881 4.00 4.00 0.050 0.113 1.2222 1.2325 
0.882 4.00 4.00 0.049 0.122 1.2266 1.2290 
0.883 4.00 4.00 0.057 0.082 1.2262 1.2281 
0.884 4.00 4.00 0.067 0.104 1.2219 1.2328 
0.885 4.00 4.00 0.045 0.086 1.2183 1.2334 
0.886 4.00 4.00 0.084 0.090 1.2233 1.2286 
0.887 4.00 4.00 0.075 0.107 1.2260 1.2261 
0.888 4.00 4.00 0.030 0.084 1.2207 1.2334 
0.889 4.00 4.00 0.053 0.103 1.2214 1.2345 
0.890 4.00 4.00 0.194 0.091 1.2213 1.2285 
0.891 4.00 4.00 0.065 0.083 1.2213 1.2286 
0.892 4.00 4.00 0.087 0.103 1.2141 1.2319 
0.893 4.00 4.00 0.094 0.022 1.2176 1.2364 
0.894 4.00 4.00 0.067 0.057 1.2188 1.2356 
0.895 4.00 4.00 0.056 0.089 1.2184 1.2353 
0.896 4.00 4.00 0.018 0.099 1.2158 1.2405 
0.897 4.00 4.00 0.128 0.124 1.2159 1.2395 
0.898 4.00 4.00 0.079 0.086 1.2180 1.2341 
0.899 4.00 4.00 0.093 0.076 1.2193 1.2259 
0.900 4.00 4.00 0.079 0.080 1.2156 1.2385 
0.901 4.00 4.00 0.066 0.079 1.2119 1.2373 
0.902 4.00 4.00 0.060 0.102 1.2173 1.2338 
0.903 4.00 4.00 0.085 0.096 1.2206 1.2324 
0.904 4.00 4.00 0.076 0.093 1.2151 1.2364 
0.905 4.00 4.00 0.231 0.080 1.2169 1.2356 
0.906 4.00 4.00 0.079 0.074 1.2267 1.2366 
0.907 4.00 4.00 0.024 0.106 1.2274 1.2354 
0.908 4.00 4.00 -0.007 0.078 1.2193 1.2315 
0.909 4.00 4.00 0.045 0.042 1.2207 1.2374 
0.910 4.00 4.00 0.092 0.069 1.2240 1.2453 
0.911 4.00 4.00 0.061 0.075 1.2240 1.2426 
0.912 4.00 4.00 0.034 0.084 1.2223 1.2356 
0.913 4.00 4.00 0.081 0.111 1.2212 1.2399 
0.914 4.00 4.00 0.082 0.087 1.2259 1.2378 
0.915 4.00 4.00 0.061 0.069 1.2253 1.2333 
0.916 4.00 4.00 0.071 0.083 1.2229 1.2320 
0.917 4.00 4.00 0.053 0.068 1.2191 1.2395 
0.918 4.00 4.00 0.059 0.115 1.2269 1.2369 
0.919 4.00 4.00 0.079 0.101 1.2272 1.2370 
0.920 4.00 4.00 0.077 0.093 1.2209 1.2344 
0.921 4.00 4.00 0.075 0.093 1.2227 1.2371 
0.922 4.00 4.00 0.013 0.069 1.2305 1.2367 
0.923 4.00 4.00 0.048 0.099 1.2325 1.2414 
0.924 4.00 4.00 0.073 -0.029 1.2254 1.2345 
0.925 4.00 4.00 0.064 0.029 1.2290 1.2380 
0.926 4.00 4.00 0.051 0.074 1.2283 1.2446 
0.927 4.00 4.00 0.019 0.091 1.2282 1.2466 
0.928 4.00 4.00 0.131 0.124 1.2196 1.2375 
0.929 4.00 4.00 0.108 0.098 1.2248 1.2366 
0.930 4.00 4.00 0.068 0.075 1.2275 1.2363 
0.931 4.00 4.00 0.089 0.095 1.2278 1.2414 
0.932 4.00 4.00 0.052 0.083 1.2197 1.2381 
0.933 4.00 4.00 0.037 0.087 1.2201 1.2366 
0.934 4.00 4.00 0.092 0.095 1.2252 1.2390 
0.935 4.00 4.00 0.074 0.070 1.2242 1.2429 
0.936 4.00 4.00 0.116 0.104 1.2255 1.2392 
0.937 4.00 4.00 0.116 0.072 1.2132 1.2342 
0.938 4.00 4.00 0.037 0.074 1.2041 1.2343 
0.939 4.00 4.00 0.034 0.100 1.2296 1.2414 
0.940 4.00 4.00 0.088 0.060 1.2254 1.2433 
0.941 4.00 4.00 0.048 0.066 1.2197 1.2432 
0.942 4.00 4.00 0.080 0.082 1.2159 1.2441 
0.943 4.00 4.00 0.205 0.098 1.2177 1.2483 
0.944 4.00 4.00 0.065 0.132 1.2185 1.2457 
0.945 4.00 4.00 0.094 0.087 1.2158 1.2385 
0.946 4.00 4.00 0.061 0.082 1.2159 1.2324 
0.947 4.00 4.00 0.117 0.087 1.2180 1.2437 
0.948 4.00 4.00 0.090 0.083 1.2153 1.2407 
0.949 4.00 4.00 0.030 0.103 1.2079 1.2379 
0.950 4.00 4.00 0.079 0.100 1.2169 1.2308 
0.951 4.00 4.00 0.210 0.084 1.2212 1.2363 
0.952 4.00 4.00 0.118 0.082 1.2113 1.2383 
0.953 4.00 4.00 0.108 0.065 1.2164 1.2366 
0.954 4.00 4.00 0.062 0.091 1.2257 1.2352 
0.955 4.00 4.00 0.042 0.083 1.2263 1.2300 
0.956 4.00 4.00 0.175 0.069 1.2195 1.2350 
0.957 4.00 4.00 0.102 0.064 1.2199 1.2462 
0.958 4.00 4.00 0.160 0.072 1.2191 1.2407 
0.959 4.00 4.00 0.067 0.099 1.2223 1.2368 
0.960 4.00 4.00 0.026 0.102 1.2230 1.2432 
0.961 4.00 4.00 0.067 0.087 1.2190 1.2386 
0.962 4.00 4.00 0.042 0.087 1.2193 1.2344 
0.963 4.00 4.00 0.061 0.091 1.2212 1.2326 
0.964 4.00 4.00 0.068 0.091 1.2238 1.2398 
0.965 4.00 4.00 0.099 0.102 1.2155 1.2422 
0.966 4.00 4.00 0.206 0.097 1.1963 1.2373 
0.967 4.00 4.00 0.126 0.070 1.2235 1.2303 
0.968 4.00 4.00 0.059 0.077 1.2230 1.2393 
0.969 4.00 4.00 0.082 0.064 1.2145 1.2327 
0.970 4.00 4.00 0.071 0.093 1.2229 1.2498 
0.971 4.00 4.00 0.062 0.081 1.2234 1.2381 
0.972 4.00 4.00 0.145 0.068 1.2242 1.2411 
0.973 4.00 4.00 0.098 0.073 1.2219 1.2471 
0.974 4.00 4.00 0.078 0.087 1.2235 1.2487 
0.975 4.00 4.00 0.062 0.117 1.2246 1.2436 
0.976 4.00 4.00 0.023 0.092 1.2274 1.2409 
0.977 4.00 4.00 0.057 0.071 1.2216 1.2394 
0.978 4.00 4.00 0.067 0.087 1.2200 1.2462 
0.979 4.00 4.00 0.056 -0.018 1.2238 1.2424 
0.980 4.00 4.00 0.087 0.074 1.2266 1.2400 
0.981 4.00 4.00 0.164 0.091 1.2220 1.2463 
0.982 4.00 4.00 0.121 0.070 1.2161 1.2467 
0.983 4.00 4.00 0.125 0.099 1.2254 1.2451 
0.984 4.00 4.00 0.228 0.090 1.2246 1.2424 
0.985 4.00 4.00 0.134 0.065 1.2204 1.2411 
0.986 4.00 4.00 0.029 0.078 1.2256 1.2453 
0.987 4.00 4.00 0.057 0.068 1.2277 1.2426 
0.988 4.00 4.00 0.132 -0.028 1.2289 1.2476 
0.989 4.00 4.00 0.082 0.038 1.2238 1.2459 
0.990 4.00 4.00 0.117 0.038 1.2219 1.2505 
0.991 4.00 4.00 0.041 0.106 1.2266 1.2506 
0.992 4.00 4.00 0.034 0.089 1.2266 1.2430 
0.993 4.00 4.00 0.061 0.085 1.2241 1.2389 
0.994 4.00 4.00 0.045 0.097 1.2234 1.2464 
0.995 4.00 4.00 0.052 0.078 1.2255 1.2381 
0.996 4.00 4.00 0.059 0.129 1.2293 1.2459 
0.997 4.00 4.00 0.010 0.110 1.2203 1.2400 
0.998 4.00 4.00 0.186 0.071 1.2195 1.2356 
0.999 4.00 4.00 0.105 0.086 1.2263 1.2398 
1.000 4.00 4.00 0.068 0.078 1.2270 1.2407 
1.001 4.00 4.00 0.149 0.080 1.2259 1.2378 
1.002 4.00 4.00 0.189 0.083 1.2265 1.2349 
1.003 0.00 0.00 0.083 0.061 1.2262 1.2429 
1.004 0.00 0.00 -0.075 0.017 1.2278 1.2485 
1.005 0.00 0.00 -0.464 -0.337 1.2071 1.2258 
1.006 0.00 0.00 -0.644 -0.670 1.1810 1.1945 
1.007 0.00 0.00 -0.775 -0.755 1.1507 1.1710 
1.008 0.00 0.00 -0.916 -0.885 1.1215 1.1245 
1.009 0.00 0.00 -0.761 -0.885 1.0853 1.1020 
1.010 0.00 0.00 -0.794 -0.819 1.0473 1.0778 
1.011 0.00 0.00 -0.882 -0.878 1.0194 1.0333 
1.012 0.00 0.00 -0.807 -0.911 0.9889 1.0148 
1.013 0.00 0.00 -0.766 -0.788 0.9712 0.9948 
1.014 0.00 0.00 -0.824 -0.827 0.9386 0.9644 
1.015 0.00 0.00 -0.794 -0.826 0.9189 0.9369 
1.016 0.00 0.00 -0.644 -0.678 0.8818 0.9222 
1.017 0.00 0.00 -0.690 -0.716 0.8539 0.8937 
1.018 0.00 0.00 -0.755 -0.766 0.8079 0.8701 
1.019 0.00 0.00 -0.717 -0.788 0.7794 0.8452 
1.020 0.00 0.00 -0.601 -0.685 0.7741 0.8086 
1.021 0.00 0.00 -0.631 -0.674 0.7379 0.7883 
1.022 0.00 0.00 -0.688 -0.701 0.7184 0.7590 
1.023 0.00 0.00 -0.698 -0.617 0.6872 0.7491 
1.024 0.00 0.00 -0.551 -0.507 0.6736 0.7372 
1.025 0.00 0.00 -0.524 -0.564 0.6522 0.7140 
1.026 0.00 0.00 -0.562 -0.634 0.6240 0.6856 
1.027 0.00 0.00 -0.591 -0.666 0.6107 0.6698 
1.028 0.00 0.00 -0.577 -0.572 0.5779 0.6508 
1.029 0.00 0.00 -0.497 -0.497 0.5629 0.6232 
1.030 0.00 0.00 -0.442 -0.545 0.5536 0.6142 
1.031 0.00 0.00 -0.467 -0.591 0.5341 0.5836 
1.032 0.00 0.00 -0.494 -0.602 0.4991 0.5622 
1.033 0.00 0.00 -0.504 -0.526 0.4870 0.5535 
1.034 0.00 0.00 -0.495 -0.412 0.4675 0.5357 
1.035 0.00 0.00 -0.424 -0.407 0.4506 0.5190 
1.036 0.00 0.00 -0.333 -0.467 0.4438 0.5091 
1.037 0.00 0.00 -0.327 -0.504 0.4344 0.4928 
1.038 0.00 0.00 -0.361 -0.510 0.4132 0.4741 
1.039 0.00 0.00 -0.381 -0.492 0.3921 0.4498 
1.040 0.00 0.00 -0.387 -0.408 0.3787 0.4409 
1.041 0.00 0.00 -0.383 -0.333 0.3662 0.4256 
1.042 0.00 0.00 -0.359 -0.330 0.3440 0.4108 
1.043 0.00 0.00 -0.332 -0.350 0.3257 0.3998 
1.044 0.00 0.00 -0.306 -0.370 0.3257 0.3854 
1.045 0.00 0.00 -0.252 -0.385 0.3157 0.3645 
1.046 0.00 0.00 -0.251 -0.378 0.3038 0.3682 
1.047 0.00 0.00 -0.256 -0.347 0.2840 0.3499 
1.048 0.00 0.00 -0.266 -0.252 0.2815 0.3426 
1.049 0.00 0.00 -0.270 -0.219 0.2587 0.3376 
1.050 0.00 0.00 -0.260 -0.236 0.2587 0.3228 
1.051 0.00 0.00 -0.254 -0.257 0.2407 0.3228 
1.052 0.00 0.00 -0.241 -0.284 0.2353 0.3027 
